#Wave		#Intensity
1585.210938	33133.769531
1584.209961	33118.785156
1583.208984	32799.781250
1582.208008	33105.062500
1581.206055	33168.093750
1580.204102	32826.816406
1579.202148	32565.519531
1578.200195	32376.671875
1577.198242	32462.244141
1576.195313	31944.349609
1575.192383	32304.203125
1574.189453	32053.248047
1573.186523	31849.744141
1572.182617	32027.515625
1571.178711	31500.277344
1570.174805	31416.550781
1569.170898	31091.337891
1568.166992	31714.712891
1567.162109	31227.792969
1566.158203	31074.513672
1565.153320	30560.560547
1564.147461	30743.267578
1563.142578	30970.660156
1562.136719	30839.933594
1561.130859	30758.974609
1560.125000	30543.843750
1559.119141	30542.488281
1558.113281	31224.294922
1557.106445	31011.681641
1556.099609	31186.535156
1555.092773	31614.546875
1554.084961	31332.480469
1553.078125	31492.263672
1552.070313	31785.962891
1551.062500	31789.302734
1550.054688	32365.548828
1549.045898	32408.441406
1548.038086	32924.820313
1547.029297	33272.437500
1546.020508	33528.226563
1545.011719	33863.187500
1544.001953	34420.941406
1542.992188	34649.082031
1541.982422	35003.406250
1540.972656	34996.160156
1539.962891	35278.488281
1538.952148	35385.011719
1537.942383	35815.574219
1536.931641	35803.214844
1535.919922	35503.992188
1534.909180	35088.691406
1533.897461	35064.125000
1532.886719	34671.324219
1531.874023	34229.269531
1530.862305	34004.789063
1529.850586	33928.593750
1528.837891	33672.164063
1527.825195	33245.488281
1526.812500	32421.583984
1525.799805	32555.537109
1524.786133	32267.521484
1523.772461	31745.279297
1522.758789	31457.548828
1521.745117	31502.816406
1520.731445	30966.259766
1519.716797	30686.259766
1518.702148	30916.472656
1517.687500	30991.373047
1516.672852	30191.796875
1515.657227	30774.132813
1514.642578	31144.478516
1513.626953	30633.380859
1512.610352	30631.958984
1511.594727	30556.714844
1510.579102	30747.199219
1509.562500	30846.597656
1508.545898	30763.974609
1507.529297	30656.798828
1506.511719	30697.152344
1505.494141	30685.878906
1504.477539	30610.722656
1503.458984	30658.427734
1502.441406	30588.218750
1501.423828	30596.615234
1500.405273	30558.359375
1499.386719	30873.578125
1498.368164	30324.833984
1497.348633	30433.867188
1496.330078	30945.154297
1495.310547	30352.585938
1494.291016	30738.621094
1493.271484	30408.650391
1492.250977	30512.644531
1491.231445	30398.500000
1490.210938	30708.250000
1489.190430	30804.763672
1488.168945	30641.644531
1487.148438	31005.013672
1486.126953	30770.925781
1485.105469	31021.531250
1484.083984	31110.531250
1483.061523	31160.351563
1482.040039	31337.335938
1481.017578	31678.089844
1479.995117	31436.810547
1478.971680	31924.064453
1477.949219	32481.988281
1476.925781	32321.318359
1475.902344	32600.433594
1474.878906	32806.160156
1473.855469	33141.222656
1472.831055	33383.367188
1471.806641	33683.992188
1470.782227	34270.015625
1469.757813	34340.984375
1468.733398	34809.531250
1467.708008	35214.476563
1466.682617	35816.753906
1465.657227	36421.218750
1464.631836	36867.003906
1463.605469	37344.285156
1462.579102	37784.816406
1461.552734	38639.250000
1460.526367	38833.363281
1459.500000	39818.703125
1458.472656	40139.066406
1457.445313	40829.230469
1456.417969	40679.625000
1455.390625	40980.144531
1454.362305	41154.058594
1453.334961	40897.472656
1452.306641	40327.359375
1451.277344	40255.785156
1450.249023	39635.003906
1449.219727	38766.640625
1448.191406	38590.972656
1447.162109	37718.324219
1446.131836	36797.472656
1445.102539	36255.730469
1444.072266	35893.820313
1443.041992	35138.933594
1442.011719	34937.535156
1440.981445	34403.898438
1439.950195	33814.695313
1438.918945	33841.617188
1437.887695	33323.074219
1436.856445	32981.679688
1435.825195	32749.466797
1434.792969	32614.255859
1433.760742	32670.453125
1432.728516	32501.408203
1431.696289	32390.539063
1430.663086	32105.425781
1429.629883	32205.238281
1428.596680	31968.671875
1427.563477	31683.818359
1426.530273	31266.054688
1425.496094	31015.316406
1424.461914	30909.740234
1423.427734	30879.136719
1422.393555	30819.546875
1421.358398	30378.226563
1420.323242	30405.722656
1419.288086	30496.001953
1418.252930	30397.896484
1417.217773	30299.832031
1416.181641	30621.779297
1415.145508	30347.544922
1414.109375	30454.621094
1413.073242	30491.697266
1412.036133	30716.863281
1411.000000	30601.964844
1409.962891	30769.156250
1408.924805	31177.287109
1407.887695	31565.968750
1406.849609	31901.486328
1405.812500	32313.937500
1404.773438	32923.679688
1403.735352	33388.710938
1402.697266	33899.281250
1401.658203	33800.761719
1400.619141	34501.109375
1399.580078	34294.253906
1398.540039	34806.605469
1397.500977	34921.980469
1396.460938	34818.535156
1395.420898	35003.558594
1394.380859	34479.593750
1393.339844	34162.468750
1392.298828	34061.660156
1391.257813	34001.714844
1390.216797	33975.414063
1389.175781	33653.847656
1388.133789	33934.832031
1387.091797	33846.164063
1386.049805	33726.339844
1385.007813	33889.601563
1383.964844	34194.273438
1382.922852	34776.941406
1381.879883	34537.160156
1380.835938	34863.070313
1379.792969	35308.648438
1378.749023	35411.468750
1377.706055	35473.527344
1376.661133	35839.671875
1375.617188	36344.515625
1374.573242	36284.261719
1373.528320	36415.476563
1372.483398	36484.425781
1371.438477	36228.023438
1370.392578	36153.484375
1369.347656	36377.859375
1368.301758	36277.019531
1367.255859	36467.808594
1366.208984	36237.949219
1365.163086	36407.160156
1364.116211	36624.066406
1363.069336	36305.953125
1362.022461	36403.410156
1360.974609	36457.855469
1359.927734	36557.621094
1358.879883	36685.972656
1357.832031	36737.933594
1356.783203	36806.562500
1355.735352	37104.082031
1354.686523	37346.636719
1353.637695	37870.355469
1352.588867	38119.792969
1351.539063	38292.882813
1350.490234	38899.437500
1349.440430	39722.457031
1348.390625	40409.410156
1347.339844	40774.691406
1346.290039	41827.664063
1345.239258	42370.957031
1344.188477	43189.996094
1343.137695	43801.750000
1342.085938	44865.082031
1341.034180	45450.070313
1339.982422	46217.843750
1338.930664	47042.332031
1337.878906	47436.394531
1336.826172	47979.953125
1335.773438	48086.261719
1334.720703	48363.496094
1333.667969	48391.324219
1332.614258	48575.800781
1331.561523	47988.933594
1330.507813	47760.574219
1329.453125	47148.027344
1328.399414	46905.703125
1327.344727	46291.214844
1326.290039	45525.261719
1325.235352	45086.703125
1324.180664	45015.613281
1323.125000	44674.472656
1322.070313	44771.667969
1321.014648	44302.835938
1319.958008	43969.156250
1318.902344	43827.347656
1317.845703	43508.101563
1316.789063	43162.957031
1315.732422	42654.722656
1314.675781	41964.589844
1313.618164	41244.000000
1312.560547	41003.632813
1311.502930	40266.996094
1310.445313	39542.484375
1309.386719	39149.046875
1308.329102	38226.648438
1307.270508	37481.761719
1306.210938	36680.515625
1305.152344	36146.363281
1304.092773	35319.769531
1303.033203	34580.828125
1301.973633	34502.765625
1300.914063	34379.917969
1299.853516	33889.242188
1298.792969	33825.511719
1297.732422	33266.796875
1296.671875	32929.843750
1295.611328	32892.265625
1294.549805	32680.382813
1293.488281	32614.605469
1292.426758	32334.578125
1291.364258	32205.333984
1290.302734	32283.267578
1289.240234	31890.525391
1288.177734	31817.914063
1287.114258	31886.464844
1286.051758	31703.349609
1284.988281	31830.669922
1283.924805	31697.005859
1282.861328	31779.615234
1281.796875	31822.242188
1280.732422	31550.050781
1279.667969	31752.416016
1278.603516	32088.542969
1277.539063	31454.912109
1276.473633	31891.884766
1275.408203	31955.541016
1274.342773	32089.552734
1273.277344	32167.208984
1272.210938	32186.197266
1271.145508	32064.490234
1270.079102	32219.455078
1269.011719	32200.914063
1267.945313	32346.406250
1266.877930	32384.066406
1265.810547	31646.417969
1264.743164	31522.623047
1263.674805	31206.894531
1262.607422	31338.384766
1261.539063	30924.531250
1260.470703	30927.333984
1259.401367	30490.345703
1258.333008	30392.666016
1257.263672	30171.095703
1256.194336	30145.992188
1255.125000	29662.785156
1254.054688	29572.365234
1252.985352	29757.666016
1251.915039	29403.310547
1250.843750	29067.787109
1249.773438	29397.830078
1248.702148	29246.857422
1247.630859	28629.179688
1246.559570	28793.431641
1245.488281	28535.365234
1244.416016	28461.662109
1243.343750	28604.851563
1242.271484	28503.183594
1241.199219	28203.435547
1240.125977	28642.537109
1239.053711	28345.210938
1237.980469	28490.591797
1236.906250	28321.507813
1235.833008	28657.753906
1234.758789	28467.750000
1233.684570	27991.558594
1232.610352	28399.785156
1231.536133	28072.695313
1230.460938	28252.789063
1229.385742	28253.748047
1228.310547	28231.453125
1227.235352	28332.361328
1226.159180	28507.589844
1225.083008	28199.466797
1224.006836	28579.062500
1222.930664	28338.402344
1221.853516	28174.466797
1220.777344	28145.244141
1219.700195	28749.650391
1218.622070	28430.253906
1217.544922	28440.427734
1216.466797	28668.623047
1215.388672	28590.615234
1214.310547	28528.869141
1213.232422	28673.445313
1212.153320	29242.058594
1211.074219	29242.763672
1209.995117	28981.701172
1208.916016	29258.060547
1207.835938	29573.662109
1206.755859	29196.939453
1205.675781	29334.197266
1204.595703	28953.052734
1203.514648	29395.685547
1202.434570	28871.279297
1201.353516	29036.230469
1200.271484	28805.750000
1199.190430	28714.056641
1198.108398	28779.554688
1197.026367	28336.697266
1195.944336	28332.939453
1194.862305	28308.394531
1193.779297	28087.587891
1192.696289	27818.392578
1191.613281	28013.236328
1190.530273	27838.779297
1189.446289	27675.929688
1188.362305	27160.236328
1187.278320	27613.328125
1186.194336	27505.960938
1185.109375	27412.466797
1184.024414	27141.552734
1182.939453	27361.535156
1181.854492	26984.777344
1180.768555	27121.781250
1179.683594	26945.562500
1178.597656	26930.568359
1177.510742	27014.548828
1176.424805	26711.896484
1175.337891	27032.853516
1174.250977	26530.207031
1173.164063	26805.068359
1172.077148	26746.425781
1170.989258	26779.751953
1169.901367	26277.583984
1168.813477	26504.001953
1167.724609	26443.167969
1166.636719	26299.675781
1165.547852	26748.667969
1164.458984	26850.812500
1163.369141	26484.681641
1162.280273	26882.853516
1161.190430	26785.294922
1160.100586	26933.207031
1159.010742	26831.089844
1157.919922	27072.927734
1156.829102	26840.160156
1155.738281	26935.212891
1154.647461	26991.271484
1153.555664	26935.056641
1152.464844	27059.794922
1151.373047	26996.714844
1150.280273	26750.513672
1149.188477	26868.337891
1148.095703	27054.759766
1147.002930	26751.503906
1145.910156	26736.580078
1144.817383	26561.582031
1143.723633	26638.154297
1142.629883	26447.248047
1141.536133	26388.972656
1140.441406	26415.257813
1139.347656	26213.095703
1138.252930	25956.203125
1137.158203	26261.132813
1136.062500	25817.140625
1134.967773	26039.796875
1133.872070	25999.935547
1132.776367	26060.472656
1131.679688	25945.349609
1130.583984	25839.396484
1129.487305	26164.392578
1128.390625	26040.199219
1127.292969	25977.587891
1126.196289	26010.695313
1125.098633	26298.916016
1124.000977	26208.953125
1122.903320	26178.228516
1121.804688	26315.972656
1120.706055	25952.939453
1119.607422	26124.800781
1118.508789	26053.162109
1117.409180	26086.177734
1116.310547	25941.804688
1115.210938	25961.185547
1114.110352	26044.199219
1113.010742	26063.544922
1111.910156	25658.009766
1110.809570	25859.148438
1109.708984	25926.207031
1108.607422	25813.859375
1107.506836	25506.333984
1106.405273	25811.722656
1105.303711	25574.667969
1104.201172	25126.738281
1103.098633	25261.896484
1101.996094	25281.347656
1100.893555	24974.326172
1099.791016	25163.820313
1098.687500	24974.791016
1097.583984	24810.763672
1096.480469	24997.900391
1095.376953	25139.660156
1094.272461	25317.582031
1093.167969	25289.431641
1092.063477	25320.134766
1090.958008	25316.880859
1089.853516	25533.058594
1088.748047	25638.316406
1087.642578	25716.390625
1086.536133	26002.414063
1085.430664	26245.365234
1084.324219	26628.310547
1083.217773	27035.937500
1082.110352	27061.662109
1081.003906	27597.730469
1079.896484	27844.572266
1078.789063	28034.875000
1077.680664	28100.968750
1076.573242	28115.140625
1075.464844	27982.677734
1074.356445	28384.767578
1073.247070	28186.910156
1072.138672	28151.445313
1071.029297	27904.136719
1069.919922	27780.865234
1068.809570	27612.589844
1067.700195	27302.490234
1066.589844	26960.998047
1065.479492	26763.738281
1064.368164	26379.742188
1063.257813	26533.742188
1062.146484	26111.712891
1061.035156	25930.546875
1059.922852	25715.724609
1058.811523	25773.046875
1057.699219	25088.542969
1056.586914	25226.878906
1055.473633	25046.093750
1054.361328	25105.750000
1053.248047	24882.394531
1052.134766	24888.166016
1051.021484	24698.625000
1049.907227	24733.607422
1048.792969	24492.568359
1047.678711	24558.984375
1046.564453	24840.693359
1045.449219	24763.482422
1044.333984	24717.689453
1043.218750	24790.714844
1042.103516	24794.234375
1040.987305	24752.939453
1039.871094	24738.541016
1038.754883	24574.099609
1037.638672	24788.123047
1036.521484	24744.619141
1035.404297	24779.462891
1034.287109	24986.580078
1033.169922	25164.523438
1032.051758	25089.654297
1030.933594	24867.236328
1029.815430	25118.853516
1028.697266	25204.962891
1027.578125	25069.808594
1026.458984	24789.496094
1025.339844	25025.265625
1024.220703	24981.789063
1023.100586	25061.125000
1021.980469	25028.818359
1020.860352	24876.013672
1019.740234	25082.490234
1018.619141	25128.263672
1017.498047	25071.429688
1016.376953	24851.853516
1015.255859	24674.724609
1014.133789	24916.664063
1013.011719	25225.339844
1011.889648	24974.726563
1010.767578	25272.113281
1009.644531	24887.992188
1008.521484	24909.210938
1007.398438	25041.703125
1006.274414	25082.902344
1005.151367	24768.119141
1004.027344	24913.896484
1002.902344	25186.359375
1001.778320	24940.677734
1000.653320	25144.103516
999.528320	25351.882813
998.403320	25033.001953
997.278320	24931.947266
996.152344	25039.693359
995.026367	25007.507813
993.900391	25177.337891
992.773438	24812.230469
991.646484	25097.406250
990.519531	25080.755859
989.392578	25221.578125
988.265625	25056.339844
987.137695	25239.222656
986.009766	25211.464844
984.881836	25274.568359
983.752930	25235.734375
982.624023	25214.632813
981.495117	25288.759766
980.366211	25338.498047
979.236328	25102.677734
978.106445	24957.691406
976.976563	25080.474609
975.846680	24915.644531
974.715820	24739.828125
973.585938	24679.058594
972.454102	24695.681641
971.323242	24537.705078
970.191406	24547.718750
969.060547	24431.812500
967.927734	24386.628906
966.795898	24524.730469
965.663086	24779.767578
964.530273	25158.285156
963.397461	25428.509766
962.264648	25464.767578
961.130859	25860.519531
959.997070	25925.326172
958.863281	25791.687500
957.729492	26098.929688
956.594727	26084.304688
955.459961	26058.666016
954.325195	25649.779297
953.189453	25685.904297
952.053711	25380.753906
950.917969	24941.466797
949.782227	24940.308594
948.646484	24560.716797
947.509766	24447.453125
946.373047	24442.001953
945.235352	24612.447266
944.098633	24083.777344
942.960938	24263.013672
941.823242	24367.458984
940.685547	24324.675781
939.546875	24433.451172
938.408203	24142.542969
937.269531	24042.753906
936.129883	24116.396484
934.991211	23874.023438
933.851563	24432.498047
932.711914	24468.710938
931.571289	24423.769531
930.431641	24547.656250
929.291016	24892.863281
928.149414	24348.220703
927.008789	24334.011719
925.867188	24689.980469
924.725586	24412.908203
923.583984	24416.201172
922.441406	24684.349609
921.299805	24424.966797
920.157227	24504.826172
919.013672	24050.912109
917.871094	23984.291016
916.727539	23797.441406
915.583984	23912.335938
914.439453	23799.888672
913.295898	23757.408203
912.151367	23717.130859
911.006836	23735.835938
909.861328	23660.640625
908.716797	23482.873047
907.571289	23527.802734
906.424805	23710.179688
905.279297	23445.253906
904.132813	23505.423828
902.986328	23316.976563
901.839844	23510.128906
900.692383	23724.990234
899.545898	23549.689453
898.398438	23341.787109
897.250000	23506.437500
896.102539	23498.976563
894.954102	23417.494141
893.805664	23214.154297
892.656250	23517.951172
891.507813	23638.851563
890.358398	23274.626953
889.208984	23654.316406
888.058594	23229.369141
886.908203	23513.248047
885.758789	23253.687500
884.607422	23533.082031
883.457031	23112.882813
882.305664	23188.033203
881.154297	23560.615234
880.002930	23179.759766
878.850586	23419.783203
877.698242	23492.619141
876.545898	23608.806641
875.393555	23202.250000
874.240234	23175.335938
873.086914	23094.236328
871.933594	23359.949219
870.780273	23192.164063
869.625977	23215.095703
868.471680	23272.667969
867.317383	23299.898438
866.162109	23474.330078
865.007813	23280.724609
863.852539	23284.123047
862.696289	23226.943359
861.541016	23232.511719
860.384766	23222.939453
859.228516	23258.771484
858.072266	23257.839844
856.915039	23163.982422
855.757813	23385.601563
854.600586	23103.830078
853.442383	23299.445313
852.285156	23561.902344
851.126953	23532.828125
849.968750	23400.177734
848.809570	23138.128906
847.650391	23128.580078
846.491211	23205.298828
845.332031	23094.394531
844.171875	23231.439453
843.012695	23042.992188
841.851563	23156.281250
840.691406	22970.083984
839.530273	23128.562500
838.369141	23093.177734
837.208008	22956.630859
836.046875	23117.150391
834.884766	23159.248047
833.722656	22891.544922
832.560547	22834.736328
831.397461	22775.802734
830.234375	22684.644531
829.071289	22937.416016
827.908203	22794.689453
826.744141	22909.824219
825.580078	22795.083984
824.416016	22843.595703
823.251953	22688.128906
822.086914	23095.083984
820.921875	22843.062500
819.756836	22825.001953
818.590820	23150.134766
817.425781	23046.232422
816.259766	22942.375000
815.092773	22797.837891
813.926758	22779.798828
812.759766	22821.755859
811.592773	22767.300781
810.424805	22620.785156
809.257813	22893.974609
808.089844	22593.375000
806.920898	22763.718750
805.752930	22690.074219
804.583984	22577.958984
803.415039	22483.000000
802.246094	22723.765625
801.076172	22684.390625
799.906250	22760.437500
798.736328	22733.888672
797.566406	22634.720703
796.395508	22586.853516
795.224609	22801.630859
794.053711	22877.556641
792.881836	22961.980469
791.710938	22969.550781
790.538086	23233.103516
789.366211	23562.650391
788.194336	23625.509766
787.021484	23956.945313
785.848633	24090.015625
784.674805	23741.460938
783.500977	23757.349609
782.327148	23696.554688
781.153320	23371.746094
779.979492	23255.710938
778.804688	23612.228516
777.629883	23298.294922
776.454102	23435.511719
775.279297	22955.857422
774.103516	22952.742188
772.927734	22947.500000
771.750977	23471.500000
770.575195	23325.888672
769.398438	23033.753906
768.220703	23393.820313
767.043945	23316.273438
765.866211	23470.173828
764.688477	23490.279297
763.510742	23748.044922
762.332031	24092.675781
761.153320	24091.408203
759.974609	24571.519531
758.794922	25089.570313
757.616211	25673.089844
756.436523	26464.019531
755.255859	27377.466797
754.076172	28919.595703
752.895508	30433.486328
751.714844	32658.066406
750.533203	34492.144531
749.352539	37209.976563
748.170898	39592.265625
746.988281	41717.515625
745.806641	43552.058594
744.624023	44633.066406
743.441406	44832.109375
742.258789	45050.078125
741.075195	45365.132813
739.891602	46056.042969
738.708008	46584.019531
737.523438	48285.687500
736.339844	49889.468750
735.155273	51766.871094
733.969727	53056.839844
732.785156	53247.179688
731.599609	52492.601563
730.414063	51143.773438
729.227539	48239.839844
728.041992	44593.277344
726.855469	41460.398438
725.667969	38055.097656
724.481445	35112.593750
723.293945	32744.156250
722.106445	31010.443359
720.918945	29469.046875
719.730469	28256.603516
718.541992	26924.804688
717.353516	26632.587891
716.164063	25844.265625
714.975586	25396.863281
713.786133	24703.759766
712.595703	24422.820313
711.406250	24076.882813
710.215820	23693.298828
709.025391	23994.421875
707.833984	23499.765625
706.642578	23492.263672
705.451172	23384.041016
704.259766	23357.685547
703.068359	23555.759766
701.875977	23361.619141
700.683594	23343.666016
699.490234	23805.691406
698.297852	24034.904297
697.104492	24370.855469
695.910156	25226.083984
694.716797	25287.285156
693.522461	25840.437500
692.328125	26073.095703
691.132813	26305.644531
689.938477	25866.527344
688.743164	26080.187500
687.547852	25603.679688
686.351563	25507.884766
685.155273	25345.248047
683.958984	24839.976563
682.762695	24616.976563
681.565430	24233.248047
680.368164	24081.486328
679.170898	23808.705078
677.973633	23838.701172
676.775391	23860.333984
675.577148	23606.562500
674.378906	23526.031250
673.179688	23466.386719
671.980469	23713.244141
670.781250	23470.156250
669.581055	23548.099609
668.381836	23215.570313
667.181641	23153.976563
665.980469	23104.902344
664.780273	22941.341797
663.579102	23071.345703
662.377930	22787.164063
661.175781	23125.195313
659.973633	23090.736328
658.771484	23070.849609
657.569336	23443.919922
656.367188	23147.500000
655.164063	23285.548828
653.960938	23415.218750
652.756836	23767.087891
651.552734	23992.111328
650.348633	23996.951172
649.144531	24163.695313
647.939453	24303.382813
646.735352	24826.835938
645.529297	24597.076172
644.324219	24875.507813
643.118164	24867.685547
641.912109	24942.781250
640.706055	24978.462891
639.499023	24703.341797
638.292969	24513.275391
637.084961	24219.748047
635.877930	24156.175781
634.669922	24094.701172
633.461914	24041.531250
632.253906	23682.166016
631.044922	23842.173828
629.836914	23615.376953
628.626953	23638.861328
627.417969	23542.439453
626.208008	23691.992188
624.998047	23748.496094
623.788086	23891.732422
622.577148	23745.769531
621.366211	23548.255859
620.155273	23707.947266
618.944336	23483.701172
617.732422	23476.203125
616.520508	23120.089844
615.308594	22976.560547
614.095703	22756.808594
612.882813	22879.347656
611.669922	22554.609375
610.457031	22578.232422
609.243164	22290.791016
608.029297	22046.730469
606.815430	22062.214844
605.600586	22114.746094
604.385742	22097.275391
603.170898	21715.621094
601.955078	21583.052734
600.740234	21804.281250
599.524414	21830.072266
598.307617	21849.683594
597.091797	21865.173828
595.875000	21767.644531
594.658203	21859.150391
593.440430	21973.205078
592.222656	21656.013672
591.004883	21548.353516
589.787109	21553.621094
588.568359	21378.322266
587.349609	21490.296875
586.130859	21536.587891
584.912109	21548.000000
583.692383	21372.857422
582.472656	21654.832031
581.251953	21492.037109
580.032227	21476.812500
578.811523	21652.062500
577.589844	21786.277344
576.369141	21916.333984
575.147461	21839.621094
573.925781	21922.541016
572.703125	22277.498047
571.481445	22161.888672
570.258789	22559.562500
569.035156	22773.066406
567.812500	23462.671875
566.588867	23442.925781
565.365234	23425.232422
564.140625	23740.449219
562.916992	23824.785156
561.692383	23664.109375
560.466797	23742.298828
559.242188	23483.773438
558.016602	23378.363281
556.791016	23299.517578
555.564453	23202.353516
554.337891	22799.447266
553.111328	22400.802734
551.884766	22134.787109
550.657227	21925.935547
549.429688	21729.398438
548.202148	21901.505859
546.974609	21926.960938
545.746094	21636.933594
544.517578	21796.730469
543.288086	21641.130859
542.058594	22138.470703
540.829102	22021.496094
539.599609	21811.060547
538.370117	21797.867188
537.139648	21581.484375
535.909180	21850.724609
534.677734	21815.187500
533.446289	21840.582031
532.214844	21805.060547
530.983398	21830.441406
529.750977	21618.402344
528.519531	21404.431641
527.286133	21367.011719
526.053711	21406.660156
524.820313	21213.156250
523.586914	21487.925781
522.353516	21403.910156
521.119141	21261.183594
519.884766	21280.552734
518.650391	21160.191406
517.415039	21276.744141
516.179688	20933.802734
514.944336	21074.632813
513.708984	20988.820313
