#Wave		#Intensity
1585.210938	31085.701172
1584.209961	31110.677734
1583.208984	31016.832031
1582.208008	30760.744141
1581.206055	31053.902344
1580.204102	30852.814453
1579.202148	30764.085938
1578.200195	30637.974609
1577.198242	30836.138672
1576.195313	30670.166016
1575.192383	30813.392578
1574.189453	30607.613281
1573.186523	30436.802734
1572.182617	30841.587891
1571.178711	30466.542969
1570.174805	30188.777344
1569.170898	30232.324219
1568.166992	30494.916016
1567.162109	30274.556641
1566.158203	30153.824219
1565.153320	30020.699219
1564.147461	30141.335938
1563.142578	30281.816406
1562.136719	30094.046875
1561.130859	30207.132813
1560.125000	30536.386719
1559.119141	30609.576172
1558.113281	30387.109375
1557.106445	30683.832031
1556.099609	31524.250000
1555.092773	31428.345703
1554.084961	31890.968750
1553.078125	32169.757813
1552.070313	32579.929688
1551.062500	32689.773438
1550.054688	32913.656250
1549.045898	33635.843750
1548.038086	34362.691406
1547.029297	35205.730469
1546.020508	35763.441406
1545.011719	36330.828125
1544.001953	37383.480469
1542.992188	38517.417969
1541.982422	38806.566406
1540.972656	39744.171875
1539.962891	40300.242188
1538.952148	40207.765625
1537.942383	40486.417969
1536.931641	40661.074219
1535.919922	40734.261719
1534.909180	40268.429688
1533.897461	39639.640625
1532.886719	39527.632813
1531.874023	38620.046875
1530.862305	37888.226563
1529.850586	37124.601563
1528.837891	36435.375000
1527.825195	35939.000000
1526.812500	35008.398438
1525.799805	34174.429688
1524.786133	33999.574219
1523.772461	33590.449219
1522.758789	32703.025391
1521.745117	31983.642578
1520.731445	32223.546875
1519.716797	31901.384766
1518.702148	31379.751953
1517.687500	31466.875000
1516.672852	30829.771484
1515.657227	31089.361328
1514.642578	31432.556641
1513.626953	31248.804688
1512.610352	31143.884766
1511.594727	31181.726563
1510.579102	31172.808594
1509.562500	31181.111328
1508.545898	30906.605469
1507.529297	31244.414063
1506.511719	31112.576172
1505.494141	31056.980469
1504.477539	31139.001953
1503.458984	31498.585938
1502.441406	31008.210938
1501.423828	31053.353516
1500.405273	31292.427734
1499.386719	31224.582031
1498.368164	30999.701172
1497.348633	31064.431641
1496.330078	31170.833984
1495.310547	31233.046875
1494.291016	31292.779297
1493.271484	30798.443359
1492.250977	31137.654297
1491.231445	31354.197266
1490.210938	31009.599609
1489.190430	31216.277344
1488.168945	31444.910156
1487.148438	31161.714844
1486.126953	31255.623047
1485.105469	31239.355469
1484.083984	31482.468750
1483.061523	31527.316406
1482.040039	31831.416016
1481.017578	32269.884766
1479.995117	32216.740234
1478.971680	31921.619141
1477.949219	32413.558594
1476.925781	32915.066406
1475.902344	33098.785156
1474.878906	33795.328125
1473.855469	33954.367188
1472.831055	34626.027344
1471.806641	35075.289063
1470.782227	35675.664063
1469.757813	36756.441406
1468.733398	36839.070313
1467.708008	37499.671875
1466.682617	38508.679688
1465.657227	39336.867188
1464.631836	40211.019531
1463.605469	41204.207031
1462.579102	42162.875000
1461.552734	43286.777344
1460.526367	44570.941406
1459.500000	45764.480469
1458.472656	46628.894531
1457.445313	47320.144531
1456.417969	48035.441406
1455.390625	48293.074219
1454.362305	47845.238281
1453.334961	47407.316406
1452.306641	47684.359375
1451.277344	46845.570313
1450.249023	45618.285156
1449.219727	44894.464844
1448.191406	43340.144531
1447.162109	42153.203125
1446.131836	40988.605469
1445.102539	39822.066406
1444.072266	38886.593750
1443.041992	37796.195313
1442.011719	37252.148438
1440.981445	36184.371094
1439.950195	35633.605469
1438.918945	35124.285156
1437.887695	34617.601563
1436.856445	34295.324219
1435.825195	34002.257813
1434.792969	33832.871094
1433.760742	33479.464844
1432.728516	33419.226563
1431.696289	32678.660156
1430.663086	32967.187500
1429.629883	32590.044922
1428.596680	32130.789063
1427.563477	31906.380859
1426.530273	32216.589844
1425.496094	31315.167969
1424.461914	31448.876953
1423.427734	31282.802734
1422.393555	31138.544922
1421.358398	31078.910156
1420.323242	30666.613281
1419.288086	30882.423828
1418.252930	30368.921875
1417.217773	30463.994141
1416.181641	30252.492188
1415.145508	30473.029297
1414.109375	30500.460938
1413.073242	30626.777344
1412.036133	30933.910156
1411.000000	30758.689453
1409.962891	31128.337891
1408.924805	31353.226563
1407.887695	31563.558594
1406.849609	31894.259766
1405.812500	32776.390625
1404.773438	33058.535156
1403.735352	33424.824219
1402.697266	33997.972656
1401.658203	34392.789063
1400.619141	34994.363281
1399.580078	34849.945313
1398.540039	34931.667969
1397.500977	35628.933594
1396.460938	35421.960938
1395.420898	35123.738281
1394.380859	35166.878906
1393.339844	35250.839844
1392.298828	35089.753906
1391.257813	34609.320313
1390.216797	34515.656250
1389.175781	34626.085938
1388.133789	34719.660156
1387.091797	34558.839844
1386.049805	34676.378906
1385.007813	34930.585938
1383.964844	35376.531250
1382.922852	35285.226563
1381.879883	35349.769531
1380.835938	35982.277344
1379.792969	36585.761719
1378.749023	36614.050781
1377.706055	37030.332031
1376.661133	36977.097656
1375.617188	37129.773438
1374.573242	37241.691406
1373.528320	37674.234375
1372.483398	37728.566406
1371.438477	37749.382813
1370.392578	37889.769531
1369.347656	37922.492188
1368.301758	38058.000000
1367.255859	38088.281250
1366.208984	38073.144531
1365.163086	38370.980469
1364.116211	38324.734375
1363.069336	38624.777344
1362.022461	38451.953125
1360.974609	37997.519531
1359.927734	38414.378906
1358.879883	38835.832031
1357.832031	38777.601563
1356.783203	39038.996094
1355.735352	38954.515625
1354.686523	39818.929688
1353.637695	39834.425781
1352.588867	40326.527344
1351.539063	41552.257813
1350.490234	42291.523438
1349.440430	43144.796875
1348.390625	43935.796875
1347.339844	44605.054688
1346.290039	45473.957031
1345.239258	46380.562500
1344.188477	47439.050781
1343.137695	48137.921875
1342.085938	48879.300781
1341.034180	49694.074219
1339.982422	51052.851563
1338.930664	50963.714844
1337.878906	52093.542969
1336.826172	52270.285156
1335.773438	52957.589844
1334.720703	52955.972656
1333.667969	52845.140625
1332.614258	52587.191406
1331.561523	52424.269531
1330.507813	51770.281250
1329.453125	51190.097656
1328.399414	50686.050781
1327.344727	50122.929688
1326.290039	49372.765625
1325.235352	49165.667969
1324.180664	48269.097656
1323.125000	48040.992188
1322.070313	47964.570313
1321.014648	47684.515625
1319.958008	47473.238281
1318.902344	47314.125000
1317.845703	46511.351563
1316.789063	46411.652344
1315.732422	45590.472656
1314.675781	45020.343750
1313.618164	44521.386719
1312.560547	43762.582031
1311.502930	42649.546875
1310.445313	41251.039063
1309.386719	40075.203125
1308.329102	39322.687500
1307.270508	38284.722656
1306.210938	37450.253906
1305.152344	36989.117188
1304.092773	35784.718750
1303.033203	35435.027344
1301.973633	34880.230469
1300.914063	34738.433594
1299.853516	34186.371094
1298.792969	34127.292969
1297.732422	33457.730469
1296.671875	33486.019531
1295.611328	33540.214844
1294.549805	33036.089844
1293.488281	32967.882813
1292.426758	33401.250000
1291.364258	33281.199219
1290.302734	33045.863281
1289.240234	32892.988281
1288.177734	32589.599609
1287.114258	32629.761719
1286.051758	32601.701172
1284.988281	32399.664063
1283.924805	32663.148438
1282.861328	32700.898438
1281.796875	32792.675781
1280.732422	32618.947266
1279.667969	32410.060547
1278.603516	32630.984375
1277.539063	32673.384766
1276.473633	32955.183594
1275.408203	33152.375000
1274.342773	33072.628906
1273.277344	33079.703125
1272.210938	32882.738281
1271.145508	33117.285156
1270.079102	32953.207031
1269.011719	33044.667969
1267.945313	33000.175781
1266.877930	32782.335938
1265.810547	32463.869141
1264.743164	32386.738281
1263.674805	32000.585938
1262.607422	31530.330078
1261.539063	31193.664063
1260.470703	31013.906250
1259.401367	31061.132813
1258.333008	30610.173828
1257.263672	30479.751953
1256.194336	30033.777344
1255.125000	30097.523438
1254.054688	29689.205078
1252.985352	29383.855469
1251.915039	29085.638672
1250.843750	28890.302734
1249.773438	28900.511719
1248.702148	28691.285156
1247.630859	28603.507813
1246.559570	28102.761719
1245.488281	28449.050781
1244.416016	28515.306641
1243.343750	28024.220703
1242.271484	28181.457031
1241.199219	27865.460938
1240.125977	27582.220703
1239.053711	27825.650391
1237.980469	27796.437500
1236.906250	27869.705078
1235.833008	27945.267578
1234.758789	27659.972656
1233.684570	27405.054688
1232.610352	27545.814453
1231.536133	27530.642578
1230.460938	27406.158203
1229.385742	27316.605469
1228.310547	27155.017578
1227.235352	27235.234375
1226.159180	27682.595703
1225.083008	27442.029297
1224.006836	27617.367188
1222.930664	27421.039063
1221.853516	27870.292969
1220.777344	27917.742188
1219.700195	28308.669922
1218.622070	28379.205078
1217.544922	28187.550781
1216.466797	28445.955078
1215.388672	28750.625000
1214.310547	29052.843750
1213.232422	29361.886719
1212.153320	29561.871094
1211.074219	29715.429688
1209.995117	30084.353516
1208.916016	30330.369141
1207.835938	30372.513672
1206.755859	30062.753906
1205.675781	30257.689453
1204.595703	30121.634766
1203.514648	29974.068359
1202.434570	30039.361328
1201.353516	29965.871094
1200.271484	29816.111328
1199.190430	29855.962891
1198.108398	29653.132813
1197.026367	29307.130859
1195.944336	29097.570313
1194.862305	28881.167969
1193.779297	28475.511719
1192.696289	28166.988281
1191.613281	27833.205078
1190.530273	27624.171875
1189.446289	27682.849609
1188.362305	27349.378906
1187.278320	27055.250000
1186.194336	26802.748047
1185.109375	26407.433594
1184.024414	26655.277344
1182.939453	26338.501953
1181.854492	26473.371094
1180.768555	25942.572266
1179.683594	25893.253906
1178.597656	26051.146484
1177.510742	25707.208984
1176.424805	25466.968750
1175.337891	25772.087891
1174.250977	25453.726563
1173.164063	25846.101563
1172.077148	25339.324219
1170.989258	25510.875000
1169.901367	25592.720703
1168.813477	25525.179688
1167.724609	25944.673828
1166.636719	25518.792969
1165.547852	25706.185547
1164.458984	25971.548828
1163.369141	26083.015625
1162.280273	26141.652344
1161.190430	26225.500000
1160.100586	26609.789063
1159.010742	26700.375000
1157.919922	27182.980469
1156.829102	26913.511719
1155.738281	26850.417969
1154.647461	26938.572266
1153.555664	27028.978516
1152.464844	26913.216797
1151.373047	27177.607422
1150.280273	26723.042969
1149.188477	26717.277344
1148.095703	26359.111328
1147.002930	26303.089844
1145.910156	26317.998047
1144.817383	26074.486328
1143.723633	25737.335938
1142.629883	25962.648438
1141.536133	25680.511719
1140.441406	25444.193359
1139.347656	25548.343750
1138.252930	25595.351563
1137.158203	25445.966797
1136.062500	25401.656250
1134.967773	25421.269531
1133.872070	25424.898438
1132.776367	25234.603516
1131.679688	25395.650391
1130.583984	25654.683594
1129.487305	25553.375000
1128.390625	25837.330078
1127.292969	25594.726563
1126.196289	25648.421875
1125.098633	25677.037109
1124.000977	25473.335938
1122.903320	25857.175781
1121.804688	25585.226563
1120.706055	25543.263672
1119.607422	25637.847656
1118.508789	25402.515625
1117.409180	25133.164063
1116.310547	25109.519531
1115.210938	25279.132813
1114.110352	25387.298828
1113.010742	24945.464844
1111.910156	25271.765625
1110.809570	25189.046875
1109.708984	25201.744141
1108.607422	25146.318359
1107.506836	24941.091797
1106.405273	24856.238281
1105.303711	25052.783203
1104.201172	24555.056641
1103.098633	24731.166016
1101.996094	24655.492188
1100.893555	24287.394531
1099.791016	24649.302734
1098.687500	24358.410156
1097.583984	24493.578125
1096.480469	24307.037109
1095.376953	24510.091797
1094.272461	24862.490234
1093.167969	24798.220703
1092.063477	24754.345703
1090.958008	24877.925781
1089.853516	25046.691406
1088.748047	24959.814453
1087.642578	25182.751953
1086.536133	25622.619141
1085.430664	25890.515625
1084.324219	26137.955078
1083.217773	26462.099609
1082.110352	26885.482422
1081.003906	27134.794922
1079.896484	27336.583984
1078.789063	27434.449219
1077.680664	27963.308594
1076.573242	28099.345703
1075.464844	28145.091797
1074.356445	28213.367188
1073.247070	28060.642578
1072.138672	27718.623047
1071.029297	27964.990234
1069.919922	27395.552734
1068.809570	26979.552734
1067.700195	27065.998047
1066.589844	26780.853516
1065.479492	26513.839844
1064.368164	26611.578125
1063.257813	26479.734375
1062.146484	25850.730469
1061.035156	25449.185547
1059.922852	24984.845703
1058.811523	24718.562500
1057.699219	24845.773438
1056.586914	24757.175781
1055.473633	24718.048828
1054.361328	24762.050781
1053.248047	24505.082031
1052.134766	24499.708984
1051.021484	24254.130859
1049.907227	24183.722656
1048.792969	24001.146484
1047.678711	23883.707031
1046.564453	24237.337891
1045.449219	24211.835938
1044.333984	24287.232422
1043.218750	24073.441406
1042.103516	24030.058594
1040.987305	24307.082031
1039.871094	24068.781250
1038.754883	24155.312500
1037.638672	24344.798828
1036.521484	24111.117188
1035.404297	24528.804688
1034.287109	24013.251953
1033.169922	24551.572266
1032.051758	24282.257813
1030.933594	24214.306641
1029.815430	24340.875000
1028.697266	24617.138672
1027.578125	24178.208984
1026.458984	24490.126953
1025.339844	24319.447266
1024.220703	24282.826172
1023.100586	24552.089844
1021.980469	24131.503906
1020.860352	24447.541016
1019.740234	24667.498047
1018.619141	24483.607422
1017.498047	24761.437500
1016.376953	24412.609375
1015.255859	24253.410156
1014.133789	24254.746094
1013.011719	24251.621094
1011.889648	24431.167969
1010.767578	24425.775391
1009.644531	24585.158203
1008.521484	24555.240234
1007.398438	24538.689453
1006.274414	24424.230469
1005.151367	24636.859375
1004.027344	24473.492188
1002.902344	24368.013672
1001.778320	24742.806641
1000.653320	24837.361328
999.528320	24474.078125
998.403320	24457.556641
997.278320	24752.021484
996.152344	24748.765625
995.026367	24687.781250
993.900391	24451.453125
992.773438	24869.933594
991.646484	24837.800781
990.519531	25071.882813
989.392578	25201.617188
988.265625	25468.771484
987.137695	25505.248047
986.009766	25741.181641
984.881836	25883.941406
983.752930	26148.482422
982.624023	26005.359375
981.495117	25873.369141
980.366211	25608.597656
979.236328	25850.822266
978.106445	25564.039063
976.976563	25534.029297
975.846680	25466.425781
974.715820	25020.685547
973.585938	25072.615234
972.454102	24775.259766
971.323242	24891.306641
970.191406	24295.833984
969.060547	24725.613281
967.927734	24450.675781
966.795898	24314.964844
965.663086	24395.654297
964.530273	24335.050781
963.397461	24638.558594
962.264648	25149.298828
961.130859	24808.453125
959.997070	25206.464844
958.863281	25205.263672
957.729492	25054.179688
956.594727	25207.261719
955.459961	25364.679688
954.325195	25229.074219
953.189453	24941.576172
952.053711	24658.609375
950.917969	24831.408203
949.782227	24497.972656
948.646484	24292.292969
947.509766	24185.689453
946.373047	24052.742188
945.235352	24267.248047
944.098633	23848.566406
942.960938	24199.279297
941.823242	24248.808594
940.685547	24140.148438
939.546875	24398.310547
938.408203	24217.199219
937.269531	24437.904297
936.129883	24559.744141
934.991211	24530.119141
933.851563	24939.269531
932.711914	24784.548828
931.571289	25015.833984
930.431641	25133.011719
929.291016	24958.619141
928.149414	24922.357422
927.008789	25243.222656
925.867188	25233.193359
924.725586	25012.937500
923.583984	25062.074219
922.441406	24822.251953
921.299805	24985.203125
920.157227	24686.423828
919.013672	24392.154297
917.871094	24517.906250
916.727539	24031.392578
915.583984	23844.572266
914.439453	23882.937500
913.295898	23565.128906
912.151367	23516.156250
911.006836	23576.404297
909.861328	23348.396484
908.716797	23408.650391
907.571289	23403.398438
906.424805	23494.158203
905.279297	23604.507813
904.132813	23468.343750
902.986328	23308.253906
901.839844	23235.437500
900.692383	23049.312500
899.545898	23340.494141
898.398438	23422.396484
897.250000	23410.599609
896.102539	23477.201172
894.954102	23498.048828
893.805664	23442.703125
892.656250	23356.914063
891.507813	23356.013672
890.358398	23740.121094
889.208984	23258.517578
888.058594	23361.996094
886.908203	23200.230469
885.758789	23418.853516
884.607422	23207.169922
883.457031	22915.207031
882.305664	23122.880859
881.154297	23328.287109
880.002930	23357.765625
878.850586	23352.503906
877.698242	23336.392578
876.545898	23120.707031
875.393555	22920.300781
874.240234	23099.443359
873.086914	22942.484375
871.933594	23056.517578
870.780273	23033.980469
869.625977	22970.292969
868.471680	23038.751953
867.317383	22868.980469
866.162109	22751.242188
865.007813	22901.947266
863.852539	22946.546875
862.696289	22679.587891
861.541016	22553.337891
860.384766	22820.716797
859.228516	22517.207031
858.072266	22784.468750
856.915039	22513.515625
855.757813	22661.824219
854.600586	22628.621094
853.442383	22601.910156
852.285156	22685.320313
851.126953	22826.972656
849.968750	23024.669922
848.809570	22991.412109
847.650391	23040.138672
846.491211	22875.333984
845.332031	22701.978516
844.171875	22979.228516
843.012695	23036.525391
841.851563	23057.166016
840.691406	22955.005859
839.530273	22997.187500
838.369141	23325.724609
837.208008	22805.939453
836.046875	23168.802734
834.884766	22756.871094
833.722656	23128.183594
832.560547	22823.982422
831.397461	23020.933594
830.234375	22931.871094
829.071289	23070.673828
827.908203	22893.535156
826.744141	23032.279297
825.580078	23012.017578
824.416016	22785.617188
823.251953	22973.662109
822.086914	22886.884766
820.921875	22883.833984
819.756836	23039.542969
818.590820	22927.064453
817.425781	22653.800781
816.259766	22734.412109
815.092773	22909.296875
813.926758	22758.369141
812.759766	22828.183594
811.592773	22707.326172
810.424805	23233.257813
809.257813	22739.820313
808.089844	22548.423828
806.920898	22812.941406
805.752930	22619.468750
804.583984	22411.111328
803.415039	22664.779297
802.246094	22749.421875
801.076172	22722.867188
799.906250	22627.935547
798.736328	22652.697266
797.566406	22773.572266
796.395508	22932.832031
795.224609	22919.066406
794.053711	22980.021484
792.881836	23286.380859
791.710938	23505.115234
790.538086	23877.341797
789.366211	23950.810547
788.194336	24489.078125
787.021484	24692.408203
785.848633	24776.292969
784.674805	24909.144531
783.500977	24669.126953
782.327148	24710.355469
781.153320	24540.757813
779.979492	24160.478516
778.804688	24316.720703
777.629883	24000.498047
776.454102	23946.089844
775.279297	23598.187500
774.103516	23820.328125
772.927734	23680.953125
771.750977	23524.636719
770.575195	23857.134766
769.398438	24104.498047
768.220703	24141.470703
767.043945	24259.117188
765.866211	24610.244141
764.688477	24814.750000
763.510742	25133.753906
762.332031	25484.433594
761.153320	26121.296875
759.974609	26541.566406
758.794922	27464.111328
757.616211	28646.945313
756.436523	29439.314453
755.255859	31688.962891
754.076172	34299.789063
752.895508	37352.015625
751.714844	40783.941406
750.533203	44974.203125
749.352539	49628.113281
748.170898	54095.820313
746.988281	57852.855469
745.806641	60419.652344
744.624023	62249.488281
743.441406	62292.300781
742.258789	61039.609375
741.075195	59918.484375
739.891602	58911.937500
738.708008	57844.601563
737.523438	58038.261719
736.339844	57611.214844
735.155273	58292.335938
733.969727	58074.304688
732.785156	56864.914063
731.599609	54742.886719
730.414063	52642.914063
729.227539	48239.839844
728.041992	44525.835938
726.855469	41205.445313
725.667969	36955.472656
724.481445	34228.039063
723.293945	31640.822266
722.106445	30206.291016
720.918945	28420.941406
719.730469	27572.755859
718.541992	27021.572266
717.353516	26169.886719
716.164063	25842.162109
714.975586	25089.939453
713.786133	24884.509766
712.595703	24653.957031
711.406250	24476.029297
710.215820	24424.197266
709.025391	24351.388672
707.833984	24249.220703
706.642578	23974.994141
705.451172	24181.416016
704.259766	24343.683594
703.068359	23983.626953
701.875977	24194.091797
700.683594	24215.779297
699.490234	24939.595703
698.297852	25619.070313
697.104492	26461.640625
695.910156	27682.923828
694.716797	28061.851563
693.522461	29091.687500
692.328125	28909.175781
691.132813	29212.218750
689.938477	29031.849609
688.743164	28928.951172
687.547852	28522.882813
686.351563	27667.515625
685.155273	27220.119141
683.958984	26649.634766
682.762695	26685.279297
681.565430	26217.525391
680.368164	25800.101563
679.170898	25675.154297
677.973633	25736.029297
676.775391	25488.029297
675.577148	25394.527344
674.378906	25276.039063
673.179688	24955.324219
671.980469	25206.007813
670.781250	24891.705078
669.581055	24362.904297
668.381836	24215.613281
667.181641	24316.257813
665.980469	24067.000000
664.780273	23911.542969
663.579102	23953.900391
662.377930	23942.130859
661.175781	23428.953125
659.973633	23845.798828
658.771484	24054.490234
657.569336	24140.417969
656.367188	23872.939453
655.164063	24266.429688
653.960938	24217.195313
652.756836	24836.833984
651.552734	24858.095703
650.348633	25369.333984
649.144531	25610.486328
647.939453	25988.494141
646.735352	26364.250000
645.529297	26690.046875
644.324219	26640.330078
643.118164	26874.681641
641.912109	26159.552734
640.706055	26505.812500
639.499023	26166.109375
638.292969	25867.990234
637.084961	25545.154297
635.877930	25002.998047
634.669922	25102.787109
633.461914	24672.732422
632.253906	24437.363281
631.044922	24429.644531
629.836914	24192.369141
628.626953	24128.882813
627.417969	23860.777344
626.208008	24128.054688
624.998047	23862.134766
623.788086	24052.855469
622.577148	23787.074219
621.366211	23837.318359
620.155273	23924.693359
618.944336	23774.693359
617.732422	23439.062500
616.520508	23505.837891
615.308594	23331.285156
614.095703	23165.058594
612.882813	23308.115234
611.669922	22960.609375
610.457031	22971.775391
609.243164	22472.068359
608.029297	22862.285156
606.815430	22756.099609
605.600586	22442.050781
604.385742	22790.837891
603.170898	22577.744141
601.955078	22860.509766
600.740234	22777.062500
599.524414	22969.175781
598.307617	22904.240234
597.091797	22845.500000
595.875000	22725.142578
594.658203	22818.480469
593.440430	23047.322266
592.222656	22994.755859
591.004883	22958.634766
589.787109	22702.929688
588.568359	22816.675781
587.349609	22563.169922
586.130859	22447.191406
584.912109	22152.876953
583.692383	22254.339844
582.472656	22421.337891
581.251953	22244.023438
580.032227	22357.681641
578.811523	22481.525391
577.589844	22537.740234
576.369141	22933.748047
575.147461	22977.548828
573.925781	23352.804688
572.703125	23433.308594
571.481445	24213.234375
570.258789	24669.728516
569.035156	24868.433594
567.812500	25590.253906
566.588867	26011.371094
565.365234	26403.691406
564.140625	26969.427734
562.916992	27218.408203
561.692383	27122.271484
560.466797	27264.968750
559.242188	26819.941406
558.016602	26664.798828
556.791016	26169.126953
555.564453	25535.027344
554.337891	24819.677734
553.111328	24218.791016
551.884766	23868.812500
550.657227	23227.679688
549.429688	23008.437500
548.202148	22595.855469
546.974609	22674.076172
545.746094	22243.443359
544.517578	22297.291016
543.288086	22326.699219
542.058594	22380.498047
540.829102	22338.703125
539.599609	22300.990234
538.370117	22188.095703
537.139648	22501.962891
535.909180	22222.488281
534.677734	22241.701172
533.446289	22130.949219
532.214844	21926.865234
530.983398	21787.820313
529.750977	21711.742188
528.519531	21828.421875
527.286133	21559.689453
526.053711	21712.845703
524.820313	21938.912109
523.586914	21854.773438
522.353516	21815.251953
521.119141	21591.396484
519.884766	21549.925781
518.650391	21561.121094
517.415039	21541.945313
516.179688	21498.488281
514.944336	21463.142578
513.708984	21403.539063
