#Wave		#Intensity
2109.224609	3933.134766
2107.712891	3919.902832
2106.201172	4036.461426
2104.687500	3936.393555
2103.175781	3930.583984
2101.662109	3971.048096
2100.150391	3943.755371
2098.636719	4020.539307
2097.123047	3955.263916
2095.607422	3967.618896
2094.093750	3925.493896
2092.578125	4035.223389
2091.064453	3917.199951
2089.548828	3916.355225
2088.033203	3950.146973
2086.517578	3917.964844
2085.000000	3989.659912
2083.484375	3957.483398
2081.966797	3950.039307
2080.449219	3894.819336
2078.931641	3875.861572
2077.414063	3889.849121
2075.894531	3882.426025
2074.376953	3847.021973
2072.857422	3967.982422
2071.337891	3950.674805
2069.818359	3982.727051
2068.298828	3902.924316
2066.777344	3964.571777
2065.257813	3975.228027
2063.736328	3898.765625
2062.214844	3925.864746
2060.693359	3969.381592
2059.171875	3937.320313
2057.648438	3946.328857
2056.126953	4032.502686
2054.603516	3949.560303
2053.080078	4024.208252
2051.556641	4054.521240
2050.033203	3955.222656
2048.507813	3949.454590
2046.984375	3979.764160
2045.458984	3933.007324
2043.933594	3976.420166
2042.408203	4011.620850
2040.882813	3946.864990
2039.355469	3954.210205
2037.830078	3928.798584
2036.302734	3919.771240
2034.775391	3943.487549
2033.248047	3942.643799
2031.718750	3899.257324
2030.191406	4009.666992
2028.662109	3889.412354
2027.134766	3942.543701
2025.605469	3891.019775
2024.076172	3862.401367
2022.544922	3905.699219
2021.015625	3898.329834
2019.484375	3935.067383
2017.955078	3944.026123
2016.423828	3868.075928
2014.892578	3899.899170
2013.359375	3887.642334
2011.828125	3880.285889
2010.294922	3905.560303
2008.761719	3996.065918
2007.230469	3954.446289
2005.695313	3986.210205
2004.162109	3887.560303
2002.628906	3955.177246
2001.093750	3874.498047
1999.558594	3868.785645
1998.023438	3931.477295
1996.488281	3925.755127
1994.953125	3929.802734
1993.417969	3880.138672
1991.880859	3889.075928
1990.343750	4005.383545
1988.806641	3949.228760
1987.269531	4008.557373
1985.732422	3906.902100
1984.193359	3886.564941
1982.656250	3934.492676
1981.117188	3988.899170
1979.578125	3880.836670
1978.039063	3980.706543
1976.500000	3950.632324
1974.958984	3957.909668
1973.417969	3875.914307
1971.878906	3909.168213
1970.337891	3927.806152
1968.796875	3970.766846
1967.253906	3843.430664
1965.712891	3938.274414
1964.169922	3974.721191
1962.626953	3967.394531
1961.083984	3964.931641
1959.541016	3866.891113
1957.998047	3885.505859
1956.455078	3949.452881
1954.910156	3887.094727
1953.365234	3970.437256
1951.820313	3967.976563
1950.275391	4025.379883
1948.730469	4021.290771
1947.183594	3936.341797
1945.638672	4029.286377
1944.091797	3947.604736
1942.544922	3974.243164
1940.998047	3957.241943
1939.449219	3987.097900
1937.902344	3968.485840
1936.353516	3982.177979
1934.804688	3823.114014
1933.255859	3923.995361
1931.707031	3882.818604
1930.158203	3957.828857
1928.607422	3869.881836
1927.058594	4001.310059
1925.507813	3895.653809
1923.957031	3936.743408
1922.406250	3921.403809
1920.853516	3975.361572
1919.302734	3858.522461
1917.750000	3867.370117
1916.197266	3927.746094
1914.644531	3862.512695
1913.091797	3956.667969
1911.539063	3928.471436
1909.984375	3909.940674
1908.431641	3894.635010
1906.876953	3959.753174
1905.322266	3976.603516
1903.767578	3925.924316
1902.210938	3945.989014
1900.656250	3906.586670
1899.099609	3900.940430
1897.542969	3885.658447
1895.986328	3908.926270
1894.429688	3912.916260
1892.873047	3995.563965
1891.314453	3940.150635
1889.755859	3876.737793
1888.199219	3851.854004
1886.640625	3810.941406
1885.080078	3907.954834
1883.521484	3881.476563
1881.960938	3970.419434
1880.402344	3908.682129
1878.841797	3877.413574
1877.281250	3863.778809
1875.720703	3949.446533
1874.158203	3866.949463
1872.597656	3843.719971
1871.035156	3846.108887
1869.472656	3797.289795
1867.910156	3836.484131
1866.347656	3877.261475
1864.783203	3946.806641
1863.220703	3814.866699
1861.656250	3847.629639
1860.091797	3878.780273
1858.527344	3866.776123
1856.962891	3937.846924
1855.396484	3932.223633
1853.832031	3824.405273
1852.265625	3861.913330
1850.699219	3873.866943
1849.132813	3925.710693
1847.566406	3958.386475
1845.998047	3823.558350
1844.431641	3974.257568
1842.863281	3847.455078
1841.294922	3913.596191
1839.726563	3920.738525
1838.156250	3948.592773
1836.587891	3869.696045
1835.017578	3964.446045
1833.449219	3826.657959
1831.878906	3894.310791
1830.306641	3896.672119
1828.736328	3811.502686
1827.166016	3907.755371
1825.593750	3913.293213
1824.021484	3974.493652
1822.449219	3854.397217
1820.876953	3869.480957
1819.304688	3822.570313
1817.730469	3940.945068
1816.158203	3976.654297
1814.583984	3820.149414
1813.009766	3887.630371
1811.435547	3882.046143
1809.859375	3862.177490
1808.285156	3870.884277
1806.708984	3824.051514
1805.132813	3913.669189
1803.556641	3916.014893
1801.980469	3959.588623
1800.404297	3923.873535
1798.826172	3907.194092
1797.248047	3846.149170
1795.671875	3919.803711
1794.093750	3804.923096
1792.513672	3916.564453
1790.935547	3933.154541
1789.355469	3878.500000
1787.777344	3899.838867
1786.197266	3840.466797
1784.617188	3918.758545
1783.035156	3775.575439
1781.455078	3926.591553
1779.873047	3962.126465
1778.292969	3958.127930
1776.710938	3886.174316
1775.128906	3894.833740
1773.544922	3931.924316
1771.962891	3946.887451
1770.378906	3889.207764
1768.794922	3855.232910
1767.212891	3977.532471
1765.626953	4017.721436
1764.042969	3999.517578
1762.458984	3921.380371
1760.873047	3900.050049
1759.287109	3907.109619
1757.701172	3863.721436
1756.115234	3902.306152
1754.529297	3896.754150
1752.941406	3914.835205
1751.355469	3862.031006
1749.767578	3902.157227
1748.179688	4002.093262
1746.591797	3943.007080
1745.001953	3912.272705
1743.414063	3955.500488
1741.824219	3844.550293
1740.234375	3927.091553
1738.644531	4003.308350
1737.054688	3928.574951
1735.462891	3995.328369
1733.873047	4003.911865
1732.281250	3988.925293
1730.689453	3928.393799
1729.097656	3952.689209
1727.505859	3997.385010
1725.912109	3903.925049
1724.320313	3978.430176
1722.726563	3972.881104
1721.132813	3975.177979
1719.539063	3964.926270
1717.945313	4084.828857
1716.349609	4007.145020
1714.755859	4028.240479
1713.160156	3991.344971
1711.564453	4035.935791
1709.968750	4096.171387
1708.371094	4081.209473
1706.775391	4078.779541
1705.177734	4087.308105
1703.580078	4042.620117
1701.982422	4074.623779
1700.384766	4097.227051
1698.787109	4066.641357
1697.187500	4219.028809
1695.587891	4068.045410
1693.990234	4132.833496
1692.390625	4081.949219
1690.789063	4131.082031
1689.189453	4105.212891
1687.587891	4113.713379
1685.988281	4165.930664
1684.386719	4205.636230
1682.785156	4217.230957
1681.181641	4141.435059
1679.580078	4195.161133
1677.976563	4208.309570
1676.373047	4227.689941
1674.769531	4265.771484
1673.166016	4230.572754
1671.562500	4284.221680
1669.957031	4365.894043
1668.353516	4271.499023
1666.748047	4241.000488
1665.142578	4374.015137
1663.537109	4366.859375
1661.929688	4429.748047
1660.324219	4547.075195
1658.716797	4581.893555
1657.109375	4579.365234
1655.501953	4693.474121
1653.894531	4638.058594
1652.285156	4781.641602
1650.677734	4796.167480
1649.068359	4851.086914
1647.458984	4753.738281
1645.849609	4906.492676
1644.240234	4970.669922
1642.628906	5020.846191
1641.019531	5060.135742
1639.408203	5014.056152
1637.796875	5110.736328
1636.185547	5098.791016
1634.572266	5069.791016
1632.960938	5202.059082
1631.347656	5205.603027
1629.734375	5305.237305
1628.121094	5325.802246
1626.507813	5378.891602
1624.894531	5366.904297
1623.279297	5432.350098
1621.664063	5564.341309
1620.048828	5515.171875
1618.433594	5561.972168
1616.818359	5458.669434
1615.203125	5624.573242
1613.585938	5691.424805
1611.968750	5680.934570
1610.351563	5579.238770
1608.734375	5649.147461
1607.117188	5751.476074
1605.498047	5765.699219
1603.878906	5841.700195
1602.261719	5872.884277
1600.640625	6015.219238
1599.021484	6055.613770
1597.402344	6037.345703
1595.781250	6029.885742
1594.162109	6113.443848
1592.541016	6257.115723
1590.919922	6086.163086
1589.296875	6194.320801
1587.675781	6148.300293
1586.052734	6096.134766
1584.429688	6025.503418
1582.806641	6013.434082
1581.183594	5958.249512
1579.560547	5986.230469
1577.935547	5886.433594
1576.312500	5979.055176
1574.687500	6099.333008
1573.062500	5984.190918
1571.435547	6130.561523
1569.810547	6172.306152
1568.183594	6192.509277
1566.558594	6180.425293
1564.931641	6099.193848
1563.304688	6110.180176
1561.675781	6098.120117
1560.048828	6155.172363
1558.419922	6129.288086
1556.791016	6193.983887
1555.162109	6289.345703
1553.533203	6349.375000
1551.904297	6522.899902
1550.273438	6470.888672
1548.642578	6366.762695
1547.011719	6523.306641
1545.380859	6316.518066
1543.750000	6223.217773
1542.119141	6122.296387
1540.486328	6010.695801
1538.853516	5971.120117
1537.220703	5738.640137
1535.587891	5722.101074
1533.955078	5622.923340
1532.320313	5589.583496
1530.685547	5417.045410
1529.052734	5449.530762
1527.416016	5495.764160
1525.781250	5529.746582
1524.146484	5549.958008
1522.509766	5475.413574
1520.873047	5423.818359
1519.236328	5373.772461
1517.599609	5401.633789
1515.962891	5476.814941
1514.324219	5443.580078
1512.687500	5491.247559
1511.048828	5532.790527
1509.410156	5528.549316
1507.771484	5579.216797
1506.130859	5469.749023
1504.492188	5508.209961
1502.851563	5665.543457
1501.210938	5618.606934
1499.570313	5605.208008
1497.927734	5581.151855
1496.287109	5438.318848
1494.644531	5517.843750
1493.001953	5432.930176
1491.359375	5256.737305
1489.716797	5284.514648
1488.074219	5202.747559
1486.429688	5049.530762
1484.785156	5173.131836
1483.140625	5024.547852
1481.496094	5035.623047
1479.851563	4988.947266
1478.207031	5115.491699
1476.560547	5152.361328
1474.914063	5186.177734
1473.267578	5245.790039
1471.621094	5182.418945
1469.972656	5281.464844
1468.326172	5157.418945
1466.677734	5177.542480
1465.029297	5194.623047
1463.380859	5293.578613
1461.732422	5253.017090
1460.082031	5295.835449
1458.431641	5402.280762
1456.783203	5440.502441
1455.132813	5275.735840
1453.480469	5416.945801
1451.830078	5187.150391
1450.177734	5149.697266
1448.527344	5047.184082
1446.875000	5100.561035
1445.220703	5041.971191
1443.568359	5016.679688
1441.916016	4950.572266
1440.261719	5041.715820
1438.607422	5037.599609
1436.953125	4988.151367
1435.298828	5009.730469
1433.642578	4955.777832
1431.988281	4823.321289
1430.332031	4826.803711
1428.675781	4697.450684
1427.019531	4732.649902
1425.361328	4712.007324
1423.705078	4646.118652
1422.046875	4575.733887
1420.388672	4612.434570
1418.730469	4593.341797
1417.072266	4577.270996
1415.412109	4618.467285
1413.753906	4551.175781
1412.093750	4538.135742
1410.433594	4638.040527
1408.773438	4730.373535
1407.111328	4786.541016
1405.451172	5011.229980
1403.789063	5065.806152
1402.126953	5204.594727
1400.464844	5367.384766
1398.802734	5459.435547
1397.138672	5414.651367
1395.474609	5457.055176
1393.812500	5311.617188
1392.146484	5193.282715
1390.482422	5151.597656
1388.818359	4983.796387
1387.152344	5054.769043
1385.486328	5068.674805
1383.820313	5055.562988
1382.154297	5121.971191
1380.488281	5213.849609
1378.820313	5466.147461
1377.154297	5434.966797
1375.486328	5610.657227
1373.818359	5636.405762
1372.148438	5801.486328
1370.480469	5653.414063
1368.810547	5646.186523
1367.140625	5650.939941
1365.470703	5410.182129
1363.800781	5385.050293
1362.130859	5392.849121
1360.458984	5276.474121
1358.787109	5279.805176
1357.115234	5278.647949
1355.443359	5367.193359
1353.771484	5403.384277
1352.097656	5445.536621
1350.423828	5566.854492
1348.751953	5758.324219
1347.076172	6091.582520
1345.402344	6275.386230
1343.728516	6687.499023
1342.052734	6969.589844
1340.376953	7312.731934
1338.701172	7400.630859
1337.025391	7709.223145
1335.347656	7817.870605
1333.671875	8009.953125
1331.994141	8169.160645
1330.316406	8232.929688
1328.638672	8196.852539
1326.960938	7965.671387
1325.281250	7899.885254
1323.601563	7808.817383
1321.921875	7714.812012
1320.242188	7373.813477
1318.562500	7227.869629
1316.880859	7132.564941
1315.201172	6897.506836
1313.519531	6723.512207
1311.837891	6601.622070
1310.154297	6344.541504
1308.472656	6286.679199
1306.789063	6161.993164
1305.105469	5970.526855
1303.421875	5805.872070
1301.738281	5678.403809
1300.054688	5387.726563
1298.369141	5313.825684
1296.683594	5113.853516
1294.998047	5140.904785
1293.312500	4946.990234
1291.626953	4910.314453
1289.939453	4786.201660
1288.253906	4752.540527
1286.566406	4641.850586
1284.878906	4562.315918
1283.189453	4583.520508
1281.501953	4538.086914
1279.812500	4591.852539
1278.123047	4598.235352
1276.433594	4694.872559
1274.744141	4745.607422
1273.052734	4612.926758
1271.363281	4674.007324
1269.671875	4800.106445
1267.980469	4756.180176
1266.289063	4756.602539
1264.595703	4634.405273
1262.904297	4661.439941
1261.210938	4591.000977
1259.517578	4544.214355
1257.824219	4460.547852
1256.128906	4424.140137
1254.435547	4375.944824
1252.740234	4397.097656
1251.044922	4291.415527
1249.349609	4370.078125
1247.652344	4482.608398
1245.957031	4399.082520
1244.259766	4343.587402
1242.562500	4408.909180
1240.865234	4338.708496
1239.167969	4259.704102
1237.468750	4348.552734
1235.769531	4321.092285
1234.072266	4340.729492
1232.371094	4300.041992
1230.671875	4169.654785
1228.972656	4221.661133
1227.271484	4170.735352
1225.570313	4200.670410
1223.869141	4170.343750
1222.167969	4185.573242
1220.464844	4208.139648
1218.763672	4227.758789
1217.060547	4124.043457
1215.357422	4035.052490
1213.654297	4070.838135
1211.949219	4141.819336
1210.246094	4016.211914
1208.541016	4091.572510
1206.835938	3989.490479
1205.130859	3992.995361
1203.423828	3934.946045
1201.718750	3923.808838
1200.011719	3883.378662
1198.304688	3929.374512
1196.597656	3940.208008
1194.888672	3927.614014
1193.181641	3996.984619
1191.472656	3864.397705
1189.763672	3920.584473
1188.054688	3877.290527
1186.343750	3902.741211
1184.634766	3915.022705
1182.923828	3816.217285
1181.212891	3821.205811
1179.501953	3823.269531
1177.791016	3787.356445
1176.078125	3731.014893
1174.365234	3785.654785
1172.652344	3679.710938
1170.939453	3750.389160
1169.226563	3778.725342
1167.511719	3884.355957
1165.798828	3896.606934
1164.083984	4048.818359
1162.369141	3982.312500
1160.652344	3908.549805
1158.937500	3878.529541
1157.220703	3882.026123
1155.503906	3795.227295
1153.787109	3658.962891
1152.070313	3698.897217
1150.351563	3715.527588
1148.632813	3730.695068
1146.916016	3716.761475
1145.195313	3711.559814
1143.476563	3784.878418
1141.757813	3824.728271
1140.037109	3887.813721
1138.316406	3815.735840
1136.595703	3806.157715
1134.875000	3777.702148
1133.152344	3794.273193
1131.429688	3713.569580
1129.708984	3779.495117
1127.984375	3652.395752
1126.261719	3651.569580
1124.539063	3627.536377
1122.814453	3571.611328
1121.089844	3549.056396
1119.365234	3546.803223
1117.640625	3489.484375
1115.914063	3558.236084
1114.187500	3593.641602
1112.462891	3439.324707
1110.734375	3413.932373
1109.007813	3436.317871
1107.281250	3357.392578
1105.552734	3391.354736
1103.824219	3344.297363
1102.095703	3333.415283
1100.367188	3232.895752
1098.636719	3279.863525
1096.908203	3251.660156
1095.177734	3201.796631
1093.447266	3271.850830
1091.714844	3240.779297
1089.984375	3141.859375
1088.251953	3210.435059
1086.519531	3175.067871
1084.787109	3141.159180
1083.054688	3170.738281
1081.320313	3197.418945
1079.585938	3173.620850
1077.851563	3210.379150
1076.117188	3205.324219
1074.382813	3122.461914
1072.648438	3198.101563
1070.912109	3182.970215
1069.175781	3188.004395
1067.439453	3118.176758
1065.701172	3173.597412
1063.964844	3087.975586
1062.226563	3075.762207
1060.488281	3105.264404
1058.750000	3131.876709
1057.011719	3126.848877
1055.271484	3131.884033
1053.531250	3167.093018
1051.791016	3118.959961
1050.050781	3132.610596
1048.310547	3107.482666
1046.568359	3112.514893
1044.826172	3126.156494
1043.083984	3164.186523
1041.341797	3203.633545
1039.599609	3165.607422
1037.855469	3120.428223
1036.113281	3121.147461
1034.369141	3239.402100
1032.623047	3241.526123
1030.878906	3259.408691
1029.132813	3235.743896
1027.386719	3267.939209
1025.640625	3248.577881
1023.894531	3356.618896
1022.148438	3431.695557
1020.400391	3399.431885
1018.652344	3362.891846
1016.904297	3426.473633
1015.156250	3424.257324
1013.406250	3376.300049
1011.658203	3451.266602
1009.908203	3434.757568
1008.158203	3351.118896
1006.408203	3373.198486
1004.656250	3400.978760
1002.904297	3425.890869
1001.152344	3330.912842
999.400391	3250.245850
997.648438	3238.086426
995.896484	3195.983154
994.142578	3136.789063
992.388672	3185.958984
990.634766	3196.626709
988.878906	3224.386963
987.125000	3139.598633
985.369141	3232.870605
983.613281	3267.721436
981.857422	3208.604004
980.099609	3196.478760
978.343750	3252.656006
976.585938	3156.596191
974.828125	3144.490234
973.070313	3170.780029
971.310547	3165.783691
969.552734	3135.207031
967.792969	3182.793457
966.033203	3129.497559
964.273438	3239.552734
962.511719	3285.660889
960.750000	3243.733887
958.990234	3357.943115
957.226563	3391.220947
955.464844	3381.925049
953.703125	3331.503418
951.939453	3265.507568
950.175781	3087.550781
948.412109	3163.369385
946.648438	3036.528076
944.882813	3011.742432
943.117188	3003.963379
941.351563	2977.780029
939.585938	2981.336914
937.820313	3000.460449
936.052734	2927.600830
934.285156	3035.850342
932.517578	2923.414551
930.750000	2960.914307
928.982422	2909.335205
927.212891	2975.087402
925.443359	2980.048828
923.673828	2989.245850
921.904297	2981.489990
920.132813	2994.917969
918.361328	2951.871094
916.591797	2935.660156
914.818359	2932.156006
913.046875	2880.688477
911.275391	2871.556396
909.501953	2932.931396
907.728516	2820.880371
905.955078	2815.995850
904.179688	2837.885986
902.406250	2859.765625
900.630859	2808.396729
898.855469	2914.758057
897.080078	2887.331787
895.302734	2793.768311
893.525391	2869.101563
891.750000	2845.924561
889.970703	2901.519775
888.193359	2860.065674
886.416016	2893.138184
884.636719	2889.652588
882.857422	2872.116943
881.078125	2787.157959
879.296875	2773.867188
877.517578	2747.945068
875.736328	2716.419189
873.955078	2743.855225
872.173828	2739.005127
870.390625	2787.465088
868.609375	2778.398926
866.826172	2745.499268
865.042969	2772.895020
863.259766	2678.343750
861.474609	2673.514160
859.689453	2740.131592
857.904297	2746.493408
856.119141	2699.643555
854.333984	2650.015381
852.546875	2752.963867
850.761719	2715.939209
848.974609	2746.079834
847.185547	2623.759277
845.398438	2659.499756
843.609375	2735.763428
841.822266	2644.278076
840.031250	2626.891113
838.242188	2657.008545
836.453125	2653.592529
834.662109	2664.140869
832.871094	2645.368652
831.080078	2750.817383
829.289063	2745.986328
827.496094	2692.332520
825.703125	2679.148926
823.910156	2625.535400
822.117188	2669.527344
820.324219	2670.294434
818.529297	2689.174316
816.734375	2758.194336
814.939453	2802.112793
813.144531	2730.443604
811.347656	2703.353027
809.550781	2677.666992
807.755859	2678.428955
805.957031	2654.151123
804.160156	2629.884521
802.361328	2607.019531
800.564453	2680.080811
798.765625	2615.521484
796.964844	2670.483398
795.166016	2664.298584
793.365234	2697.001953
791.564453	2753.293457
789.763672	2748.480957
787.962891	2735.343506
786.160156	2644.513916
784.359375	2666.085205
782.556641	2604.437256
780.751953	2607.983154
778.949219	2622.616211
777.144531	2555.478027
775.339844	2575.658203
773.535156	2641.539551
771.730469	2704.619873
769.925781	2612.603027
768.119141	2589.839600
766.312500	2600.299561
764.505859	2566.480713
762.697266	2684.832031
760.890625	2704.941650
759.082031	2653.147949
757.273438	2631.787842
755.464844	2718.227051
753.654297	2800.480225
751.845703	2781.862305
750.035156	2869.584961
748.224609	2968.310791
746.412109	3142.905029
744.601563	3269.118164
742.789063	3712.586426
740.976563	4318.602539
739.164063	5520.050293
737.349609	7033.883789
735.537109	9187.921875
733.722656	10924.784180
731.908203	11386.474609
730.091797	10663.427734
728.277344	8872.151367
726.460938	6842.178711
724.644531	5202.678223
722.828125	4144.644531
721.009766	3578.242676
719.193359	3250.051758
717.375000	2963.268066
715.556641	2849.837158
713.736328	2744.706299
711.917969	2713.825928
710.097656	2667.848389
708.277344	2608.158203
706.457031	2618.524658
704.636719	2678.306396
702.814453	2561.011963
700.992188	2565.893066
699.169922	2599.579590
697.347656	2530.388672
695.523438	2555.840332
693.699219	2564.829590
691.875000	2628.634521
690.050781	2689.668945
688.226563	2743.824463
686.400391	2771.933350
684.574219	2764.428955
682.748047	2698.066162
680.921875	2668.685547
679.095703	2685.838379
677.267578	2620.908691
675.439453	2551.906982
673.611328	2607.357910
671.781250	2625.875244
669.953125	2614.318115
668.123047	2617.795410
666.292969	2595.317627
664.460938	2591.969238
662.630859	2663.714111
660.798828	2661.715576
658.966797	2654.259033
657.134766	2720.479980
655.302734	2782.577148
653.468750	2736.913330
651.634766	2758.075684
649.800781	2825.571045
647.966797	2830.349121
646.130859	2828.312988
644.294922	2803.122559
642.458984	2779.305420
640.623047	2765.029297
638.787109	2782.064941
636.949219	2846.718994
635.111328	2768.495605
633.273438	2778.717041
631.435547	2791.652832
629.595703	2829.052734
627.757813	2844.688232
625.917969	2835.857178
624.076172	2874.577637
622.236328	2845.370605
620.394531	2745.569336
618.552734	2697.401367
616.710938	2627.540771
614.869141	2616.059082
613.025391	2585.591064
611.183594	2510.381592
609.339844	2498.935547
607.494141	2427.848877
605.650391	2480.124756
603.804688	2437.529785
601.958984	2465.395020
600.113281	2428.240723
598.267578	2317.989990
596.419922	2364.814209
594.572266	2365.602783
592.724609	2365.038086
590.876953	2382.058105
589.027344	2380.136963
587.179688	2374.160400
585.330078	2320.876953
583.480469	2336.539063
581.628906	2403.533936
579.779297	2332.721436
577.927734	2347.018555
576.076172	2346.457764
574.222656	2386.390137
572.371094	2420.905518
570.517578	2447.309326
568.664063	2456.166016
566.810547	2471.760742
564.955078	2452.295654
563.101563	2551.449219
561.246094	2455.165771
559.390625	2458.620361
557.533203	2400.117188
555.677734	2449.365479
553.820313	2377.429932
551.962891	2473.766113
550.105469	2443.571777
548.246094	2437.606201
546.386719	2389.950439
544.527344	2420.304932
542.667969	2357.888428
540.808594	2392.267578
538.947266	2448.128418
537.085938	2364.256348
535.224609	2390.550537
533.363281	2345.669922
531.500000	2350.478027
529.638672	2412.991455
527.775391	2448.640381
525.910156	2521.831299
524.046875	2710.319824
522.181641	3416.250000
520.316406	4112.459473
518.451172	3815.309082
516.585938	2986.402588
514.718750	2538.303223
512.851563	2456.007080
510.984375	2375.089111
509.117188	2295.548096
507.250000	2277.601807
505.380859	2251.636963
503.511719	2299.249512
501.642578	2253.232910
499.771484	2278.094482
497.902344	2253.490234
496.031250	2267.649414
494.160156	2319.208252
492.287109	2215.809326
490.416016	2295.396973
488.542969	2246.787598
486.669922	2284.954834
484.796875	2213.686768
482.921875	2249.175293
481.046875	2256.638672
479.171875	2218.762939
477.296875	2231.562012
475.421875	2269.677246
473.544922	2194.517090
471.667969	2228.626221
469.791016	2236.083008
467.914063	2184.950928
466.035156	2239.004883
464.156250	2245.122559
462.277344	2224.626709
460.398438	2176.206299
458.519531	2254.147705
456.638672	2196.436279
454.757813	2215.848633
452.876953	2168.805176
450.994141	2208.143555
449.113281	2179.720459
447.230469	2233.644775
445.347656	2161.416260
443.462891	2164.880127
441.580078	2192.228516
439.695313	2190.376465
437.810547	2211.073486
435.925781	2248.999268
434.039063	2204.710938
432.152344	2193.579102
430.267578	2177.151855
428.378906	2236.245605
426.492188	2209.220215
424.603516	2211.339111
422.714844	2148.588623
420.826172	2202.338135
418.937500	2146.235840
417.046875	2173.501953
415.158203	2231.174072
413.265625	2119.570068
411.375000	2232.748535
409.484375	2156.881348
407.591797	2254.140625
405.699219	2167.736572
403.806641	2147.406982
401.912109	2120.485352
400.019531	2179.378662
