#Wave		#Intensity
1585.210938	30920.855469
1584.209961	30880.892578
1583.208984	31109.224609
1582.208008	30883.078125
1581.206055	30896.648438
1580.204102	30867.787109
1579.202148	30676.759766
1578.200195	30647.953125
1577.198242	30392.201172
1576.195313	30807.308594
1575.192383	30698.714844
1574.189453	30363.349609
1573.186523	30514.054688
1572.182617	30398.111328
1571.178711	30561.197266
1570.174805	30178.816406
1569.170898	30222.363281
1568.166992	30275.849609
1567.162109	30189.935547
1566.158203	30243.404297
1565.153320	29883.869141
1564.147461	30143.824219
1563.142578	29983.400391
1562.136719	30273.058594
1561.130859	30053.013672
1560.125000	30504.078125
1559.119141	30768.599609
1558.113281	30878.988281
1557.106445	31386.722656
1556.099609	31333.042969
1555.092773	31855.367188
1554.084961	32146.632813
1553.078125	32269.023438
1552.070313	32773.457031
1551.062500	33285.125000
1550.054688	33501.445313
1549.045898	34042.500000
1548.038086	34424.667969
1547.029297	34925.652344
1546.020508	35525.546875
1545.011719	35721.351563
1544.001953	36620.550781
1542.992188	37333.636719
1541.982422	37865.679688
1540.972656	38206.886719
1539.962891	38637.046875
1538.952148	38992.796875
1537.942383	39024.308594
1536.931641	39266.046875
1535.919922	38968.582031
1534.909180	38831.949219
1533.897461	38178.738281
1532.886719	37718.566406
1531.874023	37527.910156
1530.862305	36611.042969
1529.850586	36008.222656
1528.837891	35294.531250
1527.825195	34907.019531
1526.812500	34159.292969
1525.799805	33545.132813
1524.786133	33214.968750
1523.772461	32046.228516
1522.758789	32481.058594
1521.745117	31907.205078
1520.731445	31525.876953
1519.716797	31494.699219
1518.702148	31199.861328
1517.687500	31023.402344
1516.672852	30627.787109
1515.657227	30976.076172
1514.642578	31366.076172
1513.626953	30946.015625
1512.610352	30875.615234
1511.594727	30812.625000
1510.579102	30857.908203
1509.562500	30814.621094
1508.545898	30891.849609
1507.529297	30524.031250
1506.511719	30911.009766
1505.494141	31042.234375
1504.477539	31018.603516
1503.458984	30619.121094
1502.441406	31047.507813
1501.423828	30851.996094
1500.405273	31081.291016
1499.386719	30981.578125
1498.368164	31225.474609
1497.348633	31206.736328
1496.330078	30812.689453
1495.310547	30992.699219
1494.291016	30814.634766
1493.271484	31097.529297
1492.250977	31002.847656
1491.231445	30937.611328
1490.210938	31193.349609
1489.190430	31218.728516
1488.168945	31457.156250
1487.148438	31242.515625
1486.126953	31172.392578
1485.105469	31599.130859
1484.083984	31829.935547
1483.061523	31637.406250
1482.040039	31860.765625
1481.017578	32208.748047
1479.995117	32402.554688
1478.971680	32843.164063
1477.949219	33154.062500
1476.925781	33496.593750
1475.902344	33765.695313
1474.878906	33958.968750
1473.855469	34723.562500
1472.831055	35319.378906
1471.806641	35504.882813
1470.782227	36402.894531
1469.757813	37171.214844
1468.733398	37700.164063
1467.708008	38511.792969
1466.682617	39327.960938
1465.657227	40180.359375
1464.631836	41449.179688
1463.605469	42139.949219
1462.579102	43761.097656
1461.552734	44475.453125
1460.526367	45876.261719
1459.500000	46589.878906
1458.472656	47349.445313
1457.445313	47877.484375
1456.417969	48310.402344
1455.390625	48134.945313
1454.362305	47692.007813
1453.334961	46767.761719
1452.306641	46468.730469
1451.277344	45776.039063
1450.249023	44216.031250
1449.219727	43130.468750
1448.191406	42040.496094
1447.162109	40824.683594
1446.131836	40313.558594
1445.102539	39484.609375
1444.072266	38374.445313
1443.041992	37604.484375
1442.011719	36604.347656
1440.981445	36492.437500
1439.950195	35958.582031
1438.918945	35245.519531
1437.887695	35180.015625
1436.856445	34416.507813
1435.825195	34343.929688
1434.792969	34491.839844
1433.760742	33944.523438
1432.728516	33789.742188
1431.696289	33296.058594
1430.663086	32659.761719
1429.629883	32708.632813
1428.596680	32597.785156
1427.563477	32061.207031
1426.530273	31931.187500
1425.496094	31883.435547
1424.461914	31586.683594
1423.427734	31285.218750
1422.393555	31107.126953
1421.358398	31083.742188
1420.323242	30591.728516
1419.288086	30423.546875
1418.252930	30463.091797
1417.217773	30121.185547
1416.181641	30604.882813
1415.145508	30364.437500
1414.109375	30806.865234
1413.073242	30653.310547
1412.036133	31240.185547
1411.000000	31019.089844
1409.962891	31463.414063
1408.924805	31625.568359
1407.887695	32252.708984
1406.849609	32561.583984
1405.812500	33474.890625
1404.773438	34252.957031
1403.735352	35033.105469
1402.697266	35856.257813
1401.658203	36339.730469
1400.619141	36746.003906
1399.580078	37197.812500
1398.540039	37291.074219
1397.500977	36937.035156
1396.460938	37071.171875
1395.420898	37152.375000
1394.380859	36839.433594
1393.339844	36632.332031
1392.298828	36398.894531
1391.257813	35959.011719
1390.216797	35939.503906
1389.175781	36064.035156
1388.133789	36140.511719
1387.091797	35770.632813
1386.049805	36283.765625
1385.007813	36621.585938
1383.964844	36846.554688
1382.922852	37248.847656
1381.879883	37929.031250
1380.835938	38685.621094
1379.792969	38996.218750
1378.749023	39198.882813
1377.706055	39545.164063
1376.661133	39927.218750
1375.617188	39976.332031
1374.573242	40532.863281
1373.528320	40940.785156
1372.483398	40618.800781
1371.438477	40423.726563
1370.392578	40357.878906
1369.347656	40000.339844
1368.301758	39965.679688
1367.255859	40370.804688
1366.208984	39951.351563
1365.163086	40005.109375
1364.116211	39743.550781
1363.069336	39501.203125
1362.022461	39810.484375
1360.974609	39900.023438
1359.927734	39822.460938
1358.879883	39950.128906
1357.832031	40115.914063
1356.783203	40264.929688
1355.735352	41024.332031
1354.686523	41473.484375
1353.637695	41884.304688
1352.588867	42242.527344
1351.539063	43012.781250
1350.490234	43954.218750
1349.440430	44761.890625
1348.390625	45950.195313
1347.339844	47059.441406
1346.290039	48230.097656
1345.239258	49497.824219
1344.188477	50144.074219
1343.137695	51793.816406
1342.085938	52807.910156
1341.034180	53541.019531
1339.982422	54613.738281
1338.930664	55498.257813
1337.878906	56173.304688
1336.826172	56332.554688
1335.773438	57275.523438
1334.720703	57310.992188
1333.667969	57163.632813
1332.614258	57047.191406
1331.561523	56147.667969
1330.507813	55841.671875
1329.453125	55153.890625
1328.399414	54599.207031
1327.344727	53473.312500
1326.290039	53142.042969
1325.235352	52007.437500
1324.180664	51633.953125
1323.125000	50900.519531
1322.070313	50986.929688
1321.014648	50609.148438
1319.958008	50314.390625
1318.902344	49771.203125
1317.845703	48958.445313
1316.789063	48349.515625
1315.732422	47357.601563
1314.675781	46437.058594
1313.618164	45677.695313
1312.560547	44221.226563
1311.502930	43578.460938
1310.445313	42803.625000
1309.386719	41095.867188
1308.329102	40021.882813
1307.270508	39082.960938
1306.210938	38113.738281
1305.152344	37772.855469
1304.092773	36537.609375
1303.033203	36006.066406
1301.973633	35644.601563
1300.914063	35134.687500
1299.853516	35198.027344
1298.792969	34544.601563
1297.732422	34320.453125
1296.671875	34197.738281
1295.611328	34105.699219
1294.549805	33533.140625
1293.488281	33855.789063
1292.426758	33316.484375
1291.364258	33558.992188
1290.302734	33373.027344
1289.240234	33462.460938
1288.177734	32869.570313
1287.114258	33006.113281
1286.051758	32912.128906
1284.988281	32832.285156
1283.924805	33227.320313
1282.861328	32952.371094
1281.796875	33678.519531
1280.732422	33856.988281
1279.667969	33732.390625
1278.603516	34028.179688
1277.539063	33711.082031
1276.473633	34401.078125
1275.408203	34729.386719
1274.342773	34888.621094
1273.277344	35308.160156
1272.210938	35345.246094
1271.145508	35424.519531
1270.079102	35583.460938
1269.011719	35561.863281
1267.945313	34966.175781
1266.877930	35108.703125
1265.810547	34585.964844
1264.743164	34068.132813
1263.674805	33545.832031
1262.607422	33040.132813
1261.539063	32581.455078
1260.470703	32179.121094
1259.401367	31889.244141
1258.333008	31594.808594
1257.263672	31410.394531
1256.194336	30880.062500
1255.125000	30623.417969
1254.054688	30567.845703
1252.985352	30077.740234
1251.915039	29585.505859
1250.843750	29840.779297
1249.773438	29930.169922
1248.702148	29207.173828
1247.630859	28974.587891
1246.559570	29024.431641
1245.488281	28600.685547
1244.416016	28848.832031
1243.343750	28562.878906
1242.271484	28430.912109
1241.199219	28417.875000
1240.125977	28423.482422
1239.053711	28310.263672
1237.980469	28525.531250
1236.906250	28302.876953
1235.833008	28341.093750
1234.758789	28186.076172
1233.684570	28384.886719
1232.610352	28069.367188
1231.536133	28165.751953
1230.460938	28187.664063
1229.385742	28288.628906
1228.310547	28345.375000
1227.235352	28383.498047
1226.159180	28089.283203
1225.083008	28192.498047
1224.006836	28295.664063
1222.930664	28484.716797
1221.853516	28429.880859
1220.777344	28463.283203
1219.700195	28977.103516
1218.622070	28806.169922
1217.544922	28693.302734
1216.466797	29065.253906
1215.388672	29140.212891
1214.310547	29210.500000
1213.232422	29065.183594
1212.153320	29965.115234
1211.074219	30062.978516
1209.995117	30119.101563
1208.916016	30564.285156
1207.835938	30460.501953
1206.755859	30315.089844
1205.675781	30130.392578
1204.595703	30063.785156
1203.514648	30159.150391
1202.434570	29914.457031
1201.353516	30016.746094
1200.271484	29788.367188
1199.190430	30068.625000
1198.108398	29484.425781
1197.026367	29411.107422
1195.944336	29185.353516
1194.862305	28975.861328
1193.779297	28600.203125
1192.696289	28153.136719
1191.613281	27590.855469
1190.530273	27695.707031
1189.446289	27309.099609
1188.362305	27563.892578
1187.278320	27182.085938
1186.194336	27104.783203
1185.109375	26813.134766
1184.024414	26996.361328
1182.939453	26610.388672
1181.854492	26544.783203
1180.768555	26248.890625
1179.683594	26121.214844
1178.597656	25965.966797
1177.510742	25925.865234
1176.424805	26023.849609
1175.337891	25919.330078
1174.250977	25899.960938
1173.164063	26050.773438
1172.077148	25822.152344
1170.989258	25897.054688
1169.901367	25774.279297
1168.813477	25548.156250
1167.724609	25813.732422
1166.636719	25440.705078
1165.547852	25683.222656
1164.458984	25758.046875
1163.369141	25968.253906
1162.280273	26265.568359
1161.190430	26232.382813
1160.100586	26655.664063
1159.010742	26867.781250
1157.919922	26646.474609
1156.829102	26874.542969
1155.738281	26715.203125
1154.647461	26697.988281
1153.555664	26955.673828
1152.464844	26956.732422
1151.373047	26928.019531
1150.280273	26885.582031
1149.188477	26774.498047
1148.095703	26722.953125
1147.002930	26641.687500
1145.910156	26800.625000
1144.817383	26753.675781
1143.723633	26622.150391
1142.629883	26520.394531
1141.536133	26089.589844
1140.441406	26186.773438
1139.347656	26169.691406
1138.252930	25915.093750
1137.158203	25614.935547
1136.062500	25552.326172
1134.967773	25530.824219
1133.872070	25675.906250
1132.776367	25601.910156
1131.679688	25162.998047
1130.583984	25777.826172
1129.487305	25681.048828
1128.390625	25766.667969
1127.292969	25615.236328
1126.196289	25666.650391
1125.098633	25651.978516
1124.000977	25587.208984
1122.903320	25467.816406
1121.804688	25460.019531
1120.706055	25654.787109
1119.607422	25544.552734
1118.508789	25357.015625
1117.409180	25319.671875
1116.310547	25573.416016
1115.210938	25399.628906
1114.110352	25357.748047
1113.010742	25254.527344
1111.910156	25385.367188
1110.809570	25382.126953
1109.708984	25269.875000
1108.607422	25266.658203
1107.506836	24886.609375
1106.405273	24926.593750
1105.303711	24857.642578
1104.201172	24845.433594
1103.098633	24892.199219
1101.996094	24632.816406
1100.893555	24509.570313
1099.791016	24277.580078
1098.687500	24517.037109
1097.583984	24441.468750
1096.480469	24420.292969
1095.376953	24491.974609
1094.272461	24473.058594
1093.167969	24599.019531
1092.063477	24799.609375
1090.958008	24472.910156
1089.853516	24736.775391
1088.748047	24848.992188
1087.642578	24877.494141
1086.536133	25432.720703
1085.430664	25465.599609
1084.324219	25654.378906
1083.217773	25876.964844
1082.110352	26393.082031
1081.003906	26134.402344
1079.896484	26950.511719
1078.789063	26682.789063
1077.680664	26832.679688
1076.573242	26928.351563
1075.464844	26983.376953
1074.356445	27157.902344
1073.247070	27296.275391
1072.138672	27105.458984
1071.029297	27155.880859
1069.919922	26649.712891
1068.809570	26526.740234
1067.700195	26376.791016
1066.589844	26355.259766
1065.479492	26097.345703
1064.368164	25708.994141
1063.257813	25626.855469
1062.146484	25481.755859
1061.035156	25026.306641
1059.922852	25074.800781
1058.811523	25116.523438
1057.699219	24481.617188
1056.586914	24375.121094
1055.473633	24457.408203
1054.361328	24218.423828
1053.248047	24165.951172
1052.134766	24131.460938
1051.021484	24139.638672
1049.907227	24179.232422
1048.792969	24126.806641
1047.678711	23699.746094
1046.564453	23983.884766
1045.449219	23958.439453
1044.333984	24006.986328
1043.218750	24185.515625
1042.103516	24269.843750
1040.987305	24080.792969
1039.871094	24169.582031
1038.754883	24267.289063
1037.638672	24165.677734
1036.521484	24231.998047
1035.404297	24340.810547
1034.287109	24440.621094
1033.169922	24811.070313
1032.051758	24492.494141
1030.933594	24312.693359
1029.815430	24600.201172
1028.697266	24516.560547
1027.578125	24403.902344
1026.458984	24686.726563
1025.339844	24545.041016
1024.220703	24841.103516
1023.100586	24657.021484
1021.980469	24910.515625
1020.860352	24992.058594
1019.740234	24970.931641
1018.619141	24784.744141
1017.498047	25022.367188
1016.376953	24891.986328
1015.255859	24948.912109
1014.133789	24887.691406
1013.011719	24746.279297
1011.889648	24865.568359
1010.767578	24975.894531
1009.644531	24790.015625
1008.521484	24735.564453
1007.398438	24812.453125
1006.274414	24597.798828
1005.151367	24616.835938
1004.027344	24771.542969
1002.902344	24686.011719
1001.778320	24531.595703
1000.653320	25197.451172
999.528320	24949.648438
998.403320	24793.048828
997.278320	24678.718750
996.152344	24668.816406
995.026367	24681.119141
993.900391	25057.466797
992.773438	25076.332031
991.646484	25004.214844
990.519531	25326.992188
989.392578	25270.371094
988.265625	25468.771484
987.137695	25680.382813
986.009766	25843.136719
984.881836	25748.771484
983.752930	25929.156250
982.624023	25739.568359
981.495117	25800.292969
980.366211	25655.089844
979.236328	25702.521484
978.106445	25612.724609
976.976563	25334.906250
975.846680	24895.736328
974.715820	24834.921875
973.585938	24805.085938
972.454102	24848.207031
971.323242	24522.234375
970.191406	24565.396484
969.060547	24422.976563
967.927734	24474.970703
966.795898	24725.662109
965.663086	24662.767578
964.530273	24745.564453
963.397461	25388.791016
962.264648	25394.173828
961.130859	25569.380859
959.997070	25912.095703
958.863281	25831.371094
957.729492	25794.761719
956.594727	25908.013672
955.459961	25697.353516
954.325195	25764.316406
953.189453	25313.740234
952.053711	25142.974609
950.917969	24893.041016
949.782227	24929.304688
948.646484	24468.308594
947.509766	24443.054688
946.373047	24384.822266
945.235352	24313.421875
944.098633	24387.132813
942.960938	24265.210938
941.823242	24325.712891
940.685547	24326.873047
939.546875	24284.103516
938.408203	24280.876953
937.269531	24754.025391
936.129883	24599.250000
934.991211	24538.896484
933.851563	24612.390625
932.711914	24863.507813
931.571289	25140.826172
930.431641	25047.511719
929.291016	25072.595703
928.149414	25191.896484
927.008789	25370.292969
925.867188	25287.953125
924.725586	25032.646484
923.583984	25090.537109
922.441406	24817.873047
921.299805	24508.126953
920.157227	24570.464844
919.013672	24344.029297
917.871094	23656.248047
916.727539	24020.458984
915.583984	23715.599609
914.439453	23644.718750
913.295898	23628.494141
912.151367	23304.259766
911.006836	23711.812500
909.861328	23304.726563
908.716797	23183.798828
907.571289	23300.818359
906.424805	23278.134766
905.279297	23157.287109
904.132813	23269.867188
902.986328	23273.365234
901.839844	23466.527344
900.692383	23153.933594
899.545898	23235.898438
898.398438	23609.757813
897.250000	23615.343750
896.102539	23470.667969
894.954102	23302.105469
893.805664	23227.212891
892.656250	23383.027344
891.507813	23499.607422
890.358398	23152.816406
889.208984	23075.843750
888.058594	22874.970703
886.908203	23195.882813
885.758789	22973.337891
884.607422	23015.966797
883.457031	23078.126953
882.305664	22716.757813
881.154297	22616.105469
880.002930	22773.820313
878.850586	22835.970703
877.698242	22646.390625
876.545898	22838.695313
875.393555	22911.625000
874.240234	22750.339844
873.086914	22441.708984
871.933594	22451.820313
870.780273	22708.949219
869.625977	22638.833984
868.471680	22560.085938
867.317383	22496.529297
866.162109	22491.451172
865.007813	22583.773438
863.852539	22286.542969
862.696289	22500.019531
861.541016	22453.841797
860.384766	22401.195313
859.228516	22370.191406
858.072266	22449.435547
856.915039	22444.361328
855.757813	22296.693359
854.600586	22406.136719
853.442383	22418.347656
852.285156	22322.597656
851.126953	22736.312500
849.968750	22748.435547
848.809570	22529.685547
847.650391	22453.402344
846.491211	22323.238281
845.332031	22089.634766
844.171875	22533.009766
843.012695	22139.978516
841.851563	22046.623047
840.691406	22013.626953
839.530273	22131.400391
838.369141	22150.072266
837.208008	22442.128906
836.046875	22294.996094
834.884766	22444.869141
833.722656	22310.705078
832.560547	22060.458984
831.397461	22281.236328
830.234375	22355.726563
829.071289	22185.158203
827.908203	22246.740234
826.744141	22432.892578
825.580078	22157.173828
824.416016	22396.945313
823.251953	22217.964844
822.086914	22227.945313
820.921875	22416.029297
819.756836	22423.810547
818.590820	22352.224609
817.425781	22145.570313
816.259766	22200.570313
815.092773	22221.246094
813.926758	22404.779297
812.759766	22095.453125
811.592773	22066.867188
810.424805	22252.445313
809.257813	22243.103516
808.089844	22293.699219
806.920898	22012.560547
805.752930	22001.134766
804.583984	22263.513672
803.415039	22339.714844
802.246094	22101.576172
801.076172	22197.013672
799.906250	22136.394531
798.736328	22396.298828
797.566406	22175.447266
796.395508	22448.033203
795.224609	22470.677734
794.053711	22704.644531
792.881836	22761.363281
791.710938	23048.498047
790.538086	23344.031250
789.366211	23726.871094
788.194336	24009.318359
787.021484	24182.914063
785.848633	23957.875000
784.674805	23960.935547
783.500977	24162.111328
782.327148	23860.550781
781.153320	23618.750000
779.979492	23428.148438
778.804688	23488.781250
777.629883	23298.294922
776.454102	23156.822266
775.279297	23383.369141
774.103516	23282.339844
772.927734	22992.144531
771.750977	22825.359375
770.575195	23077.267578
769.398438	23178.218750
768.220703	23255.759766
767.043945	23539.244141
765.866211	23610.292969
764.688477	23882.951172
763.510742	24136.382813
762.332031	24635.800781
761.153320	24763.796875
759.974609	25549.121094
758.794922	26272.599609
757.616211	27292.496094
756.436523	28445.429688
755.255859	30110.552734
754.076172	32596.767578
752.895508	35446.085938
751.714844	38711.187500
750.533203	42129.316406
749.352539	46195.562500
748.170898	50494.792969
746.988281	53019.445313
745.806641	55067.109375
744.624023	56767.085938
743.441406	57567.902344
742.258789	58528.960938
741.075195	59512.816406
739.891602	60929.253906
738.708008	62796.980469
737.523438	65250.816406
736.339844	68167.921875
735.155273	69821.648438
733.969727	70073.593750
732.785156	68262.367188
731.599609	65642.117188
730.414063	61397.406250
729.227539	55474.550781
728.041992	50241.464844
726.855469	44865.386719
725.667969	40465.007813
724.481445	36443.636719
723.293945	34020.148438
722.106445	31719.867188
720.918945	29702.662109
719.730469	28664.808594
718.541992	27507.519531
717.353516	26649.412109
716.164063	26033.507813
714.975586	25436.804688
713.786133	24993.798828
712.595703	24366.085938
711.406250	23919.326172
710.215820	23613.486328
709.025391	23734.046875
707.833984	23522.857422
706.642578	23347.443359
705.451172	23482.664063
704.259766	23410.132813
703.068359	23624.972656
701.875977	23330.166016
700.683594	23643.455078
699.490234	23967.078125
698.297852	24453.996094
697.104492	25175.326172
695.910156	26149.753906
694.716797	26759.375000
693.522461	27184.482422
692.328125	27611.486328
691.132813	27816.476563
689.938477	27582.035156
688.743164	27075.791016
687.547852	26561.412109
686.351563	26291.875000
685.155273	25731.925781
683.958984	25280.896484
682.762695	24859.322266
681.565430	24579.972656
680.368164	24334.162109
679.170898	24328.554688
677.973633	24297.900391
676.775391	24102.400391
675.577148	24013.392578
674.378906	24003.685547
673.179688	23841.750000
671.980469	23938.410156
670.781250	23976.662109
669.581055	23712.726563
668.381836	23363.494141
667.181641	23483.080078
665.980469	23363.126953
664.780273	23295.277344
663.579102	23269.087891
662.377930	23253.312500
661.175781	23570.429688
659.973633	23616.992188
658.771484	23657.291016
657.569336	23780.734375
656.367188	23941.533203
655.164063	24384.882813
653.960938	24437.427734
652.756836	25079.865234
651.552734	25358.580078
650.348633	25848.939453
649.144531	26177.164063
647.939453	26173.191406
646.735352	26650.570313
645.529297	26652.708984
644.324219	26779.277344
643.118164	26598.927734
641.912109	26601.072266
640.706055	26433.279297
639.499023	26074.945313
638.292969	25720.917969
637.084961	25605.212891
635.877930	25118.943359
634.669922	25214.566406
633.461914	24809.320313
632.253906	24652.542969
631.044922	24735.791016
629.836914	24380.564453
628.626953	24486.576172
627.417969	24261.798828
626.208008	24504.183594
624.998047	23992.304688
623.788086	24509.373047
622.577148	24324.029297
621.366211	24103.667969
620.155273	23575.833984
618.944336	23706.587891
617.732422	23509.214844
616.520508	23342.875000
615.308594	23044.619141
614.095703	22876.396484
612.882813	22821.628906
611.669922	22441.259766
610.457031	22372.189453
609.243164	22237.232422
608.029297	22431.853516
606.815430	22113.691406
605.600586	22022.111328
604.385742	21957.328125
603.170898	21890.515625
601.955078	21936.873047
600.740234	22063.416016
599.524414	22076.808594
598.307617	22059.361328
597.091797	22128.238281
595.875000	21964.898438
594.658203	22009.111328
593.440430	21921.859375
592.222656	21785.371094
591.004883	22242.205078
589.787109	21740.384766
588.568359	21764.072266
587.349609	21841.083984
586.130859	21667.845703
584.912109	21619.765625
583.692383	21694.701172
582.472656	21568.751953
581.251953	21823.976563
580.032227	21995.089844
578.811523	22135.402344
577.589844	22197.841797
576.369141	22526.373047
575.147461	22736.044922
573.925781	22957.896484
572.703125	23163.279297
571.481445	23519.908203
570.258789	24005.189453
569.035156	24473.890625
567.812500	24793.177734
566.588867	25057.142578
565.365234	25429.255859
564.140625	25694.992188
562.916992	25629.816406
561.692383	25903.544922
560.466797	25409.750000
559.242188	25312.033203
558.016602	25214.361328
556.791016	24912.779297
555.564453	24482.876953
554.337891	24012.400391
553.111328	23656.275391
551.884766	23045.609375
550.657227	22535.046875
549.429688	22759.962891
548.202148	22304.677734
546.974609	22207.892578
545.746094	22229.197266
544.517578	22236.246094
543.288086	22027.652344
542.058594	22317.449219
540.829102	22379.369141
539.599609	22150.556641
538.370117	22033.630859
537.139648	22243.904297
535.909180	22139.197266
534.677734	22166.554688
533.446289	21864.949219
532.214844	21941.076172
530.983398	21948.160156
529.750977	21872.044922
528.519531	21619.468750
527.286133	21448.138672
526.053711	21329.607422
524.820313	21584.142578
523.586914	21477.792969
522.353516	21320.832031
521.119141	21261.183594
519.884766	21420.302734
518.650391	21330.283203
517.415039	21473.113281
516.179688	21265.732422
514.944336	21238.537109
513.708984	21419.722656
