#Wave		#Intensity
1585.210938	28747.904297
1584.209961	28760.392578
1583.208984	28384.857422
1582.208008	29065.544922
1581.206055	28745.015625
1580.204102	28427.113281
1579.202148	28423.720703
1578.200195	28647.330078
1577.198242	28731.179688
1576.195313	28640.449219
1575.192383	28674.404297
1574.189453	28406.755859
1573.186523	28241.386719
1572.182617	28098.507813
1571.178711	28085.214844
1570.174805	27957.369141
1569.170898	28013.826172
1568.166992	27671.957031
1567.162109	28099.289063
1566.158203	27752.566406
1565.153320	27629.890625
1564.147461	27853.001953
1563.142578	27889.509766
1562.136719	27980.701172
1561.130859	28233.427734
1560.125000	28508.416016
1559.119141	28736.078125
1558.113281	28948.740234
1557.106445	29538.837891
1556.099609	29845.605469
1555.092773	30606.576172
1554.084961	30808.742188
1553.078125	31348.328125
1552.070313	31860.396484
1551.062500	32002.638672
1550.054688	32680.525391
1549.045898	32953.953125
1548.038086	33460.304688
1547.029297	33971.398438
1546.020508	34323.683594
1545.011719	34660.957031
1544.001953	35069.925781
1542.992188	35785.808594
1541.982422	36209.226563
1540.972656	36966.660156
1539.962891	37421.828125
1538.952148	37879.281250
1537.942383	38294.488281
1536.931641	38321.187500
1535.919922	38239.066406
1534.909180	37798.472656
1533.897461	37642.332031
1532.886719	36957.375000
1531.874023	36534.613281
1530.862305	36045.324219
1529.850586	35534.007813
1528.837891	34654.968750
1527.825195	33721.972656
1526.812500	33139.871094
1525.799805	32205.105469
1524.786133	31653.162109
1523.772461	30783.226563
1522.758789	30702.863281
1521.745117	29932.113281
1520.731445	29706.505859
1519.716797	29254.234375
1518.702148	29346.746094
1517.687500	28850.384766
1516.672852	28536.505859
1515.657227	28828.585938
1514.642578	28692.119141
1513.626953	28400.619141
1512.610352	28739.304688
1511.594727	28797.330078
1510.579102	28604.392578
1509.562500	28573.871094
1508.545898	28796.654297
1507.529297	28387.472656
1506.511719	28917.464844
1505.494141	28496.136719
1504.477539	28925.142578
1503.458984	28928.978516
1502.441406	28817.373047
1501.423828	28929.271484
1500.405273	28663.039063
1499.386719	28821.556641
1498.368164	29053.630859
1497.348633	29079.505859
1496.330078	29269.724609
1495.310547	29065.005859
1494.291016	29252.693359
1493.271484	29393.722656
1492.250977	28880.271484
1491.231445	29102.183594
1490.210938	29252.953125
1489.190430	29320.375000
1488.168945	29652.255859
1487.148438	29812.607422
1486.126953	29576.318359
1485.105469	30071.917969
1484.083984	29984.933594
1483.061523	30154.863281
1482.040039	30155.949219
1481.017578	30320.876953
1479.995117	30495.515625
1478.971680	30958.519531
1477.949219	31521.531250
1476.925781	31974.355469
1475.902344	32204.685547
1474.878906	32889.203125
1473.855469	33231.570313
1472.831055	34416.070313
1471.806641	34765.300781
1470.782227	35902.617188
1469.757813	36675.925781
1468.733398	37507.453125
1467.708008	38414.238281
1466.682617	40608.089844
1465.657227	41801.515625
1464.631836	43503.847656
1463.605469	44830.199219
1462.579102	46614.023438
1461.552734	47722.386719
1460.526367	50164.835938
1459.500000	51194.082031
1458.472656	51994.078125
1457.445313	52360.519531
1456.417969	52992.039063
1455.390625	52652.613281
1454.362305	52101.718750
1453.334961	51178.988281
1452.306641	49821.441406
1451.277344	48143.597656
1450.249023	46879.585938
1449.219727	45049.968750
1448.191406	44119.929688
1447.162109	42235.781250
1446.131836	40825.914063
1445.102539	39443.339844
1444.072266	38738.531250
1443.041992	36975.964844
1442.011719	36859.101563
1440.981445	35546.406250
1439.950195	35199.492188
1438.918945	34712.085938
1437.887695	34052.761719
1436.856445	33953.582031
1435.825195	32902.128906
1434.792969	32934.050781
1433.760742	32440.345703
1432.728516	32174.480469
1431.696289	31647.236328
1430.663086	31246.085938
1429.629883	31079.857422
1428.596680	30606.396484
1427.563477	30411.335938
1426.530273	30080.910156
1425.496094	29583.765625
1424.461914	29534.093750
1423.427734	29020.345703
1422.393555	29033.640625
1421.358398	28756.990234
1420.323242	28511.857422
1419.288086	28559.056641
1418.252930	28434.794922
1417.217773	28223.673828
1416.181641	28323.998047
1415.145508	28583.546875
1414.109375	28215.701172
1413.073242	28612.650391
1412.036133	28609.103516
1411.000000	29114.302734
1409.962891	29525.275391
1408.924805	30087.914063
1407.887695	31045.492188
1406.849609	31436.527344
1405.812500	32692.089844
1404.773438	33672.601563
1403.735352	34724.933594
1402.697266	36053.640625
1401.658203	36602.050781
1400.619141	37056.390625
1399.580078	37897.843750
1398.540039	37959.691406
1397.500977	37949.371094
1396.460938	38239.562500
1395.420898	38008.054688
1394.380859	37557.957031
1393.339844	37158.500000
1392.298828	37061.871094
1391.257813	36660.277344
1390.216797	36590.199219
1389.175781	36690.589844
1388.133789	36944.542969
1387.091797	37037.613281
1386.049805	38135.859375
1385.007813	38936.222656
1383.964844	40069.578125
1382.922852	40929.136719
1381.879883	41766.761719
1380.835938	43054.585938
1379.792969	44219.675781
1378.749023	45240.535156
1377.706055	45645.433594
1376.661133	46394.976563
1375.617188	47050.835938
1374.573242	46741.804688
1373.528320	46849.296875
1372.483398	46267.679688
1371.438477	46124.046875
1370.392578	45686.312500
1369.347656	45155.503906
1368.301758	44579.496094
1367.255859	44089.765625
1366.208984	43714.937500
1365.163086	42824.222656
1364.116211	42671.949219
1363.069336	42221.222656
1362.022461	42133.597656
1360.974609	41766.718750
1359.927734	41476.359375
1358.879883	41560.734375
1357.832031	41618.828125
1356.783203	41796.148438
1355.735352	41696.785156
1354.686523	42577.312500
1353.637695	43228.644531
1352.588867	43808.210938
1351.539063	44725.859375
1350.490234	46176.703125
1349.440430	47486.425781
1348.390625	49245.621094
1347.339844	50801.722656
1346.290039	52411.914063
1345.239258	54497.339844
1344.188477	56298.781250
1343.137695	58246.929688
1342.085938	59839.925781
1341.034180	61470.289063
1339.982422	62386.839844
1338.930664	63683.253906
1337.878906	64323.316406
1336.826172	64925.093750
1335.773438	66728.414063
1334.720703	66427.085938
1333.667969	65924.070313
1332.614258	65784.429688
1331.561523	64859.339844
1330.507813	64447.117188
1329.453125	63150.269531
1328.399414	62347.257813
1327.344727	60726.542969
1326.290039	59087.539063
1325.235352	58475.480469
1324.180664	57219.140625
1323.125000	56024.921875
1322.070313	55579.683594
1321.014648	54885.976563
1319.958008	53953.429688
1318.902344	53305.324219
1317.845703	52913.082031
1316.789063	52125.859375
1315.732422	50948.632813
1314.675781	49194.804688
1313.618164	48425.402344
1312.560547	47237.867188
1311.502930	45599.371094
1310.445313	44368.027344
1309.386719	43165.546875
1308.329102	41630.503906
1307.270508	40504.675781
1306.210938	39150.285156
1305.152344	38209.574219
1304.092773	37198.457031
1303.033203	36961.726563
1301.973633	35906.468750
1300.914063	35238.472656
1299.853516	34712.242188
1298.792969	34728.500000
1297.732422	34164.882813
1296.671875	33483.664063
1295.611328	33212.707031
1294.549805	33200.988281
1293.488281	33087.996094
1292.426758	33015.082031
1291.364258	32772.695313
1290.302734	33034.093750
1289.240234	32787.093750
1288.177734	32669.591797
1287.114258	32636.818359
1286.051758	32340.662109
1284.988281	33086.214844
1283.924805	32743.072266
1282.861328	32980.574219
1281.796875	33347.207031
1280.732422	33885.179688
1279.667969	34584.980469
1278.603516	34666.898438
1277.539063	35178.414063
1276.473633	36020.671875
1275.408203	36468.320313
1274.342773	37077.664063
1273.277344	37248.093750
1272.210938	37453.625000
1271.145508	37457.421875
1270.079102	37252.574219
1269.011719	37139.214844
1267.945313	36126.089844
1266.877930	36073.925781
1265.810547	35785.210938
1264.743164	34222.687500
1263.674805	33517.734375
1262.607422	32799.031250
1261.539063	32157.863281
1260.470703	31549.718750
1259.401367	31061.132813
1258.333008	30626.546875
1257.263672	30292.687500
1256.194336	29926.238281
1255.125000	29293.490234
1254.054688	29142.390625
1252.985352	28729.685547
1251.915039	28291.460938
1250.843750	28140.664063
1249.773438	27975.919922
1248.702148	27582.478516
1247.630859	27634.964844
1246.559570	27213.757813
1245.488281	27168.318359
1244.416016	27034.263672
1243.343750	27331.658203
1242.271484	26631.103516
1241.199219	26459.951172
1240.125977	26673.376953
1239.053711	26798.177734
1237.980469	26855.369141
1236.906250	26467.718750
1235.833008	26673.970703
1234.758789	26812.621094
1233.684570	27023.361328
1232.610352	26747.689453
1231.536133	27044.425781
1230.460938	26859.570313
1229.385742	26823.619141
1228.310547	26955.074219
1227.235352	26951.656250
1226.159180	26959.855469
1225.083008	26645.093750
1224.006836	27210.855469
1222.930664	26784.691406
1221.853516	27083.154297
1220.777344	27186.486328
1219.700195	27143.550781
1218.622070	27383.728516
1217.544922	27698.039063
1216.466797	27847.533203
1215.388672	27686.216797
1214.310547	27990.982422
1213.232422	28186.669922
1212.153320	28908.339844
1211.074219	29184.837891
1209.995117	29312.958984
1208.916016	29760.632813
1207.835938	29964.984375
1206.755859	29678.462891
1205.675781	29817.931641
1204.595703	29670.400391
1203.514648	29879.212891
1202.434570	29803.431641
1201.353516	29595.865234
1200.271484	29834.607422
1199.190430	29807.419922
1198.108398	29646.199219
1197.026367	29450.386719
1195.944336	29390.949219
1194.862305	28742.593750
1193.779297	28401.623047
1192.696289	27693.728516
1191.613281	27583.931641
1190.530273	27254.957031
1189.446289	26958.421875
1188.362305	26606.652344
1187.278320	26225.052734
1186.194336	25922.003906
1185.109375	25690.542969
1184.024414	25396.953125
1182.939453	25096.576172
1181.854492	24969.097656
1180.768555	24452.441406
1179.683594	24205.414063
1178.597656	24204.820313
1177.510742	24243.353516
1176.424805	23909.080078
1175.337891	23538.138672
1174.250977	23643.490234
1173.164063	23882.173828
1172.077148	23900.033203
1170.989258	23773.064453
1169.901367	23717.392578
1168.813477	23721.482422
1167.724609	23865.699219
1166.636719	23777.882813
1165.547852	23481.148438
1164.458984	23772.242188
1163.369141	24017.306641
1162.280273	24142.935547
1161.190430	23878.488281
1160.100586	24400.908203
1159.010742	24769.453125
1157.919922	24759.531250
1156.829102	25125.542969
1155.738281	24760.320313
1154.647461	25023.062500
1153.555664	25180.314453
1152.464844	25429.107422
1151.373047	25593.068359
1150.280273	25560.076172
1149.188477	25449.277344
1148.095703	25441.496094
1147.002930	25358.220703
1145.910156	25279.552734
1144.817383	25404.443359
1143.723633	25142.888672
1142.629883	25256.322266
1141.536133	25040.613281
1140.441406	25010.070313
1139.347656	25123.453125
1138.252930	24780.009766
1137.158203	24468.679688
1136.062500	24698.527344
1134.967773	24435.275391
1133.872070	24564.623047
1132.776367	24474.896484
1131.679688	24200.455078
1130.583984	24031.027344
1129.487305	24014.425781
1128.390625	24011.507813
1127.292969	24145.322266
1126.196289	23966.931641
1125.098633	23945.794922
1124.000977	24314.111328
1122.903320	23955.914063
1121.804688	24080.480469
1120.706055	24225.474609
1119.607422	24026.806641
1118.508789	24237.720703
1117.409180	23670.664063
1116.310547	23936.136719
1115.210938	23862.738281
1114.110352	23989.394531
1113.010742	23859.199219
1111.910156	23533.664063
1110.809570	23553.541016
1109.708984	23484.837891
1108.607422	23363.939453
1107.506836	23079.646484
1106.405273	23215.343750
1105.303711	23056.001953
1104.201172	23087.289063
1103.098633	22689.890625
1101.996094	22868.632813
1100.893555	22670.957031
1099.791016	22763.488281
1098.687500	22618.037109
1097.583984	22937.099609
1096.480469	22445.105469
1095.376953	22662.154297
1094.272461	22716.087891
1093.167969	22575.322266
1092.063477	22731.089844
1090.958008	22576.802734
1089.853516	22793.576172
1088.748047	23050.962891
1087.642578	23163.519531
1086.536133	23282.808594
1085.430664	23465.328125
1084.324219	23767.529297
1083.217773	24013.117188
1082.110352	24019.171875
1081.003906	24659.783203
1079.896484	24794.380859
1078.789063	25111.753906
1077.680664	25081.447266
1076.573242	25432.457031
1075.464844	25564.503906
1074.356445	25394.285156
1073.247070	25465.400391
1072.138672	25385.443359
1071.029297	25427.224609
1069.919922	25205.351563
1068.809570	24929.503906
1067.700195	24892.519531
1066.589844	24601.093750
1065.479492	24593.460938
1064.368164	24347.240234
1063.257813	24206.892578
1062.146484	23751.625000
1061.035156	23557.478516
1059.922852	23680.505859
1058.811523	23079.501953
1057.699219	22982.283203
1056.586914	22905.332031
1055.473633	22853.128906
1054.361328	22881.816406
1053.248047	22760.013672
1052.134766	22593.353516
1051.021484	22745.542969
1049.907227	22587.933594
1048.792969	22547.074219
1047.678711	22685.708984
1046.564453	22503.537109
1045.449219	22126.349609
1044.333984	22446.576172
1043.218750	22656.830078
1042.103516	22347.080078
1040.987305	22698.410156
1039.871094	22644.142578
1038.754883	22314.439453
1037.638672	22784.205078
1036.521484	22729.949219
1035.404297	22711.523438
1034.287109	22921.333984
1033.169922	23213.818359
1032.051758	23367.507813
1030.933594	23288.576172
1029.815430	23312.513672
1028.697266	23385.611328
1027.578125	23720.119141
1026.458984	23596.490234
1025.339844	23309.859375
1024.220703	23856.302734
1023.100586	24031.888672
1021.980469	23814.542969
1020.860352	23947.654297
1019.740234	24299.359375
1018.619141	24182.468750
1017.498047	24331.017578
1016.376953	24477.269531
1015.255859	24407.222656
1014.133789	24421.896484
1013.011719	24146.896484
1011.889648	24415.574219
1010.767578	24396.820313
1009.644531	24095.281250
1008.521484	24259.152344
1007.398438	24269.375000
1006.274414	24181.679688
1005.151367	24167.437500
1004.027344	24266.636719
1002.902344	23798.730469
1001.778320	23984.669922
1000.653320	23999.371094
999.528320	24147.402344
998.403320	23711.033203
997.278320	23419.238281
996.152344	23589.500000
995.026367	23904.005859
993.900391	24162.875000
992.773438	23977.757813
991.646484	23985.761719
990.519531	24282.146484
989.392578	24587.269531
988.265625	25111.773438
987.137695	25223.705078
986.009766	25249.142578
984.881836	25502.806641
983.752930	25685.460938
982.624023	25577.878906
981.495117	25598.779297
980.366211	25469.119141
979.236328	25450.187500
978.106445	25159.070313
976.976563	25034.011719
975.846680	24778.501953
974.715820	24896.843750
973.585938	24497.757813
972.454102	24357.476563
971.323242	23976.363281
970.191406	23831.835938
969.060547	23981.171875
967.927734	23967.007813
966.795898	23387.587891
965.663086	23722.349609
964.530273	23606.720703
963.397461	24259.027344
962.264648	24229.363281
961.130859	24250.439453
959.997070	24789.701172
958.863281	24702.613281
957.729492	24802.910156
956.594727	24596.857422
955.459961	24648.662109
954.325195	24949.337891
953.189453	24217.068359
952.053711	23775.744141
950.917969	23640.576172
949.782227	23806.958984
948.646484	23632.236328
947.509766	23406.996094
946.373047	23324.802734
945.235352	23433.933594
944.098633	23024.232422
942.960938	22896.021484
941.823242	23235.878906
940.685547	23456.957031
939.546875	23339.710938
938.408203	23786.828125
937.269531	23728.828125
936.129883	23833.267578
934.991211	23950.824219
933.851563	24210.921875
932.711914	24477.484375
931.571289	24357.984375
930.431641	25159.320313
929.291016	24980.537109
928.149414	25034.117188
927.008789	24901.447266
925.867188	25049.203125
924.725586	25021.697266
923.583984	24805.916016
922.441406	24776.285156
921.299805	24492.808594
920.157227	23861.574219
919.013672	23668.111328
917.871094	23590.638672
916.727539	23003.755859
915.583984	22878.373047
914.439453	22551.978516
913.295898	22782.902344
912.151367	22635.802734
911.006836	22729.007813
909.861328	22304.673828
908.716797	22544.169922
907.571289	22120.064453
906.424805	22309.302734
905.279297	22304.296875
904.132813	22308.013672
902.986328	22272.476563
901.839844	22223.875000
900.692383	22031.437500
899.545898	22004.697266
898.398438	22265.546875
897.250000	22338.957031
896.102539	22373.134766
894.954102	22085.074219
893.805664	22463.203125
892.656250	22094.730469
891.507813	22270.343750
890.358398	21860.748047
889.208984	21944.994141
888.058594	22061.812500
886.908203	21948.162109
885.758789	22140.986328
884.607422	21825.298828
883.457031	21792.146484
882.305664	21945.779297
881.154297	21686.794922
880.002930	21675.398438
878.850586	21826.777344
877.698242	21793.652344
876.545898	21372.228516
875.393555	21508.386719
874.240234	21726.876953
873.086914	21587.570313
871.933594	21452.660156
870.780273	21517.162109
869.625977	21362.826172
868.471680	21163.076172
867.317383	21203.773438
866.162109	21486.923828
865.007813	21248.314453
863.852539	21254.335938
862.696289	21113.240234
861.541016	21253.390625
860.384766	21216.152344
859.228516	21351.890625
858.072266	21215.212891
856.915039	21169.359375
855.757813	21315.812500
854.600586	21339.074219
853.442383	21075.103516
852.285156	20869.544922
851.126953	21110.902344
849.968750	21244.246094
848.809570	21610.546875
847.650391	21226.005859
846.491211	21219.044922
845.332031	20914.539063
844.171875	21153.392578
843.012695	21325.328125
841.851563	21240.775391
840.691406	21238.119141
839.530273	21396.990234
838.369141	21413.673828
837.208008	21434.656250
836.046875	21197.357422
834.884766	21347.478516
833.722656	21149.025391
832.560547	21228.111328
831.397461	21556.591797
830.234375	21306.625000
829.071289	21475.886719
827.908203	21318.449219
826.744141	21491.923828
825.580078	21605.177734
824.416016	21656.105469
823.251953	21376.390625
822.086914	21639.835938
820.921875	21626.337891
819.756836	21666.480469
818.590820	21294.779297
817.425781	21251.341797
816.259766	21589.544922
815.092773	21606.074219
813.926758	21414.724609
812.759766	21409.857422
811.592773	21666.314453
810.424805	21490.068359
809.257813	21268.937500
808.089844	21343.300781
806.920898	21342.726563
805.752930	21695.177734
804.583984	21367.240234
803.415039	21454.337891
802.246094	21494.355469
801.076172	21433.884766
799.906250	21358.480469
798.736328	21674.113281
797.566406	21549.552734
796.395508	21830.826172
795.224609	21544.007813
794.053711	21955.367188
792.881836	22150.980469
791.710938	22864.998047
790.538086	22953.648438
789.366211	23528.525391
788.194336	23866.457031
787.021484	24180.781250
785.848633	24379.871094
784.674805	24457.414063
783.500977	24044.943359
782.327148	23749.800781
781.153320	23361.097656
779.979492	22989.603516
778.804688	22750.234375
777.629883	22655.669922
776.454102	22688.791016
775.279297	22581.519531
774.103516	22476.419922
772.927734	22494.673828
771.750977	22306.746094
770.575195	22652.271484
769.398438	22661.966797
768.220703	22854.322266
767.043945	23392.720703
765.866211	23574.201172
764.688477	23558.201172
763.510742	23875.369141
762.332031	24219.970703
761.153320	24816.824219
759.974609	25602.134766
758.794922	26272.599609
757.616211	27610.441406
756.436523	29026.078125
755.255859	30534.287109
754.076172	33030.996094
752.895508	35810.328125
751.714844	39655.468750
750.533203	43562.343750
749.352539	48423.968750
748.170898	52913.109375
746.988281	57294.421875
745.806641	61675.839844
744.624023	64761.289063
743.441406	68096.867188
742.258789	71135.039063
741.075195	75752.226563
739.891602	80635.570313
738.708008	86528.257813
737.523438	91886.171875
736.339844	96228.375000
735.155273	98517.234375
733.969727	98462.992188
732.785156	94274.210938
731.599609	87763.242188
730.414063	80175.703125
729.227539	71231.968750
728.041992	61666.398438
726.855469	53525.359375
725.667969	46515.062500
724.481445	41066.484375
723.293945	36481.593750
722.106445	33742.882813
720.918945	31100.136719
719.730469	29213.990234
718.541992	27860.935547
717.353516	26462.230469
716.164063	25585.632813
714.975586	25047.894531
713.786133	24544.029297
712.595703	23699.990234
711.406250	23952.937500
710.215820	23422.361328
709.025391	23209.097656
707.833984	22972.835938
706.642578	23034.716797
705.451172	22853.158203
704.259766	22816.435547
703.068359	22857.330078
701.875977	22971.595703
700.683594	23268.195313
699.490234	23573.041016
698.297852	24435.136719
697.104492	25164.851563
695.910156	26229.345703
694.716797	27182.365234
693.522461	27657.621094
692.328125	28065.677734
691.132813	28327.064453
689.938477	28439.789063
688.743164	28255.455078
687.547852	28186.212891
686.351563	27468.904297
685.155273	26705.939453
683.958984	26365.439453
682.762695	25488.169922
681.565430	24953.853516
680.368164	24574.308594
679.170898	24510.189453
677.973633	23859.574219
676.775391	24031.451172
675.577148	23944.544922
674.378906	23957.796875
673.179688	23612.361328
671.980469	23746.601563
670.781250	23507.675781
669.581055	23596.029297
668.381836	23334.326172
667.181641	22791.542969
665.980469	22996.615234
664.780273	23255.720703
663.579102	23042.203125
662.377930	23080.587891
661.175781	23229.220703
659.973633	23639.871094
658.771484	23827.816406
657.569336	23838.949219
656.367188	24436.244141
655.164063	24773.496094
653.960938	25418.082031
652.756836	25900.349609
651.552734	26500.765625
650.348633	27219.246094
649.144531	27462.046875
647.939453	28084.507813
646.735352	28364.339844
645.529297	28347.414063
644.324219	28861.394531
643.118164	28968.759766
641.912109	28781.726563
640.706055	28621.716797
639.499023	28105.414063
638.292969	28158.988281
637.084961	27651.308594
635.877930	27172.849609
634.669922	27029.947266
633.461914	26578.753906
632.253906	26473.292969
631.044922	26144.476563
629.836914	26105.341797
628.626953	25723.000000
627.417969	25940.300781
626.208008	25684.236328
624.998047	25420.023438
623.788086	25040.253906
622.577148	24726.744141
621.366211	24093.343750
620.155273	24085.705078
618.944336	23539.421875
617.732422	23135.757813
616.520508	22651.830078
615.308594	22663.085938
614.095703	22332.064453
612.882813	22081.589844
611.669922	21959.005859
610.457031	21523.291016
609.243164	21594.525391
608.029297	21177.630859
606.815430	21207.728516
605.600586	21441.607422
604.385742	21146.457031
603.170898	21283.531250
601.955078	21194.261719
600.740234	20989.859375
599.524414	21353.046875
598.307617	21232.982422
597.091797	21351.375000
595.875000	21188.214844
594.658203	21466.791016
593.440430	21667.193359
592.222656	21456.843750
591.004883	21706.419922
589.787109	21533.099609
588.568359	21384.478516
587.349609	21451.320313
586.130859	21442.246094
584.912109	21398.318359
583.692383	21309.308594
582.472656	21425.289063
581.251953	21678.498047
580.032227	21655.035156
578.811523	21848.675781
577.589844	22455.835938
576.369141	22428.111328
575.147461	22905.916016
573.925781	23248.451172
572.703125	23766.755859
571.481445	24215.279297
570.258789	24731.072266
569.035156	24913.408203
567.812500	25420.619141
566.588867	25901.031250
565.365234	26254.562500
564.140625	26530.320313
562.916992	26595.630859
561.692383	26963.041016
560.466797	26581.251953
559.242188	26503.667969
558.016602	25883.480469
556.791016	25598.060547
555.564453	24992.640625
554.337891	24528.160156
553.111328	23811.171875
551.884766	23404.232422
550.657227	23038.224609
549.429688	22599.064453
548.202148	22149.923828
546.974609	22146.820313
545.746094	22168.138672
544.517578	21933.062500
543.288086	22143.609375
542.058594	21981.863281
540.829102	21923.892578
539.599609	22164.785156
538.370117	22153.542969
537.139648	21963.492188
535.909180	21976.677734
534.677734	21620.208984
533.446289	21582.701172
532.214844	21470.097656
530.983398	21392.046875
529.750977	21155.759766
528.519531	21144.761719
527.286133	21427.857422
526.053711	20964.617188
524.820313	21081.384766
523.586914	21040.007813
522.353516	20789.939453
521.119141	21255.107422
519.884766	21209.664063
518.650391	20694.464844
517.415039	20869.833984
516.179688	20711.167969
514.944336	20593.042969
513.708984	20705.597656
